##TITLE= Sample 019 By ssteindl date Montag, November 19 2018
##JCAMP-DX= 4.24
##DATA TYPE= INFRARED SPECTRUM
##ORIGIN= Exported PE Spectrum Data File
##OWNER= Sandra Steindl
##DATE= 18/11/19
##TIME= 16:31:21.00
##SPECTROMETER/DATA SYSTEM= PERKIN-ELMER Frontier FT-IR/NIR IR
##INSTRUMENT PARAMETERS=
  APODIZATION=stark
  DETECTOR=INGAAS
##RESOLUTION= 16.000000
##DELTAX= -2.000000
##XUNITS= 1/CM
##YUNITS= A
##XFACTOR= 1.00
##YFACTOR= 0.00000011920928955078
##FIRSTX= 10000.00
##LASTX= 4000.00
##NPOINTS= 3001
##FIRSTY= 0.178651
##MAXY= 0.560238
##MINY= 0.153576
##XYDATA= (X++(Y..Y))
 10000.000000   1498629   1500728   1503585   1507720   1512115  
  9990.000000   1515050   1515488   1513433   1509295   1503811  
  9980.000000   1497974   1492860   1489037   1486648   1485469  
  9970.000000   1485200   1485431   1485803   1485921   1485327  
  9960.000000   1483500   1479948   1474447   1467124   1458609  
  9950.000000   1449788   1441668   1434981   1430081   1426909  
  9940.000000   1425120   1424383   1424464   1425396   1427338  
  9930.000000   1430448   1434740   1439913   1445459   1450597  
  9920.000000   1454573   1456619   1456251   1453224   1447778  
  9910.000000   1440604   1432911   1426210   1421989   1421312  
  9900.000000   1424409   1430593   1438367   1445930   1451683  
  9890.000000   1454741   1455118   1453612   1451435   1449683  
  9880.000000   1449025   1449500   1450739   1452189   1453447  
  9870.000000   1454373   1455036   1455633   1456235   1456904  
  9860.000000   1457532   1458167   1458843   1459749   1460937  
  9850.000000   1462306   1463512   1464035   1463415   1461322  
  9840.000000   1457715   1452663   1446268   1438490   1429226  
  9830.000000   1418500   1406753   1395049   1385003   1378444  
  9820.000000   1376788   1380502   1388750   1399551   1410338  
  9810.000000   1418746   1423360   1424037   1421846   1418485  
  9800.000000   1415672   1414513   1415347   1417757   1420994  
  9790.000000   1424250   1426938   1428696   1429275   1428487  
  9780.000000   1426117   1422130   1416768   1410671   1404812  
  9770.000000   1400189   1397557   1397090   1398347   1400429  
  9760.000000   1402285   1403169   1402815   1401597   1400270  
  9750.000000   1399763   1400786   1403665   1408204   1413767  
  9740.000000   1419443   1424227   1427275   1428003   1426247  
  9730.000000   1422219   1416504   1409878   1403161   1397004  
  9720.000000   1391795   1387616   1384354   1381838   1379980  
  9710.000000   1378845   1378584   1379342   1381102   1383648  
  9700.000000   1386584   1389464   1391958   1393961   1395637  
  9690.000000   1397315   1399342   1401938   1405086   1408561  
  9680.000000   1411982   1414921   1416999   1417916   1417496  
  9670.000000   1415664   1412447   1407982   1402503   1396380  
  9660.000000   1390054   1384047   1378839   1374842   1372296  
  9650.000000   1371281   1371659   1373118   1375183   1377293  
  9640.000000   1378917   1379646   1379346   1378142   1376455  
  9630.000000   1374815   1373766   1373654   1374592   1376419  
  9620.000000   1378826   1381442   1383973   1386218   1388072  
  9610.000000   1389458   1390278   1390430   1389833   1388535  
  9600.000000   1386738   1384838   1383319   1382655   1383124  
  9590.000000   1384746   1387208   1389971   1392373   1393816  
  9580.000000   1393900   1392508   1389821   1386250   1382340  
  9570.000000   1378653   1375649   1373628   1372671   1372692  
  9560.000000   1373470   1374764   1376335   1377998   1379571  
  9550.000000   1380854   1381624   1381636   1380745   1378909  
  9540.000000   1376324   1373327   1370391   1367948   1366291  
  9530.000000   1365500   1365426   1365829   1366460   1367233  
  9520.000000   1368188   1369491   1371274   1373534   1376086  
  9510.000000   1378561   1380550   1381675   1381732   1380693  
  9500.000000   1378726   1376109   1373212   1370431   1368169  
  9490.000000   1366788   1366512   1367371   1369097   1371207  
  9480.000000   1373058   1374117   1374091   1373104   1371622  
  9470.000000   1370322   1369801   1370341   1371776   1373540  
  9460.000000   1374895   1375188   1374087   1371657   1368272  
  9450.000000   1364458   1360665   1357186   1354105   1351403  
  9440.000000   1349063   1347135   1345738   1344936   1344655  
  9430.000000   1344619   1344434   1343713   1342266   1340147  
  9420.000000   1337708   1335429   1333826   1333234   1333768  
  9410.000000   1335282   1337481   1340017   1342600   1345040  
  9400.000000   1347243   1349183   1350851   1352249   1353370  
  9390.000000   1354224   1354834   1355236   1355461   1355534  
  9380.000000   1355443   1355175   1354674   1353909   1352823  
  9370.000000   1351409   1349669   1347653   1345439   1343139  
  9360.000000   1340883   1338793   1336924   1335247   1333634  
  9350.000000   1331945   1330101   1328157   1326318   1324872  
  9340.000000   1324108   1324182   1325036   1326359   1327662  
  9330.000000   1328434   1328351   1327376   1325813   1324159  
  9320.000000   1322963   1322604   1323177   1324416   1325800  
  9310.000000   1326729   1326767   1325786   1324000   1321911  
  9300.000000   1320106   1319097   1319104   1320027   1321473  
  9290.000000   1322915   1323909   1324185   1323766   1322824  
  9280.000000   1321609   1320242   1318695   1316799   1314431  
  9270.000000   1311617   1308688   1306222   1304942   1305447  
  9260.000000   1307963   1312251   1317617   1323174   1328060  
  9250.000000   1331748   1334156   1335654   1336862   1338362  
  9240.000000   1340457   1343058   1345737   1347871   1348838  
  9230.000000   1348235   1346000   1342441   1338112   1333688  
  9220.000000   1329763   1326768   1324828   1323815   1323348  
  9210.000000   1322991   1322358   1321291   1319885   1318488  
  9200.000000   1317573   1317524   1318477   1320205   1322192  
  9190.000000   1323747   1324263   1323428   1321390   1318711  
  9180.000000   1316191   1314615   1314503   1315947   1318551  
  9170.000000   1321553   1324054   1325290   1324852   1322763  
  9160.000000   1319460   1315662   1312172   1309655   1308426  
  9150.000000   1308420   1309229   1310279   1311022   1311138  
  9140.000000   1310648   1309872   1309266   1309184   1309702  
  9130.000000   1310525   1311117   1310870   1309449   1306912  
  9120.000000   1303818   1301013   1299357   1299409   1301201  
  9110.000000   1304276   1307840   1311091   1313473   1314854  
  9100.000000   1315501   1315908   1316541   1317626   1319074  
  9090.000000   1320533   1321584   1321887   1321338   1320058  
  9080.000000   1318350   1316575   1315010   1313842   1313101  
  9070.000000   1312761   1312724   1312906   1313223   1313609  
  9060.000000   1314012   1314374   1314643   1314756   1314646  
  9050.000000   1314206   1313314   1311879   1309935   1307677  
  9040.000000   1305470   1303802   1303153   1303815   1305735  
  9030.000000   1308496   1311414   1313729   1314826   1314448  
  9020.000000   1312783   1310377   1307927   1306062   1305164  
  9010.000000   1305284   1306152   1307336   1308391   1309004  
  9000.000000   1309024   1308470   1307471   1306196   1304796  
  8990.000000   1303361   1301948   1300542   1299108   1297582  
  8980.000000   1295945   1294236   1292591   1291251   1290505  
  8970.000000   1290612   1291678   1293601   1296064   1298602  
  8960.000000   1300737   1302120   1302659   1302513   1302013  
  8950.000000   1301533   1301349   1301570   1302122   1302823  
  8940.000000   1303478   1303953   1304195   1304195   1303946  
  8930.000000   1303386   1302431   1300985   1299042   1296701  
  8920.000000   1294196   1291834   1289919   1288690   1288289  
  8910.000000   1288768   1290116   1292297   1295236   1298801  
  8900.000000   1302727   1306639   1310076   1312617   1313994  
  8890.000000   1314211   1313583   1312620   1311880   1311733  
  8880.000000   1312262   1313176   1313938   1313915   1312639  
  8870.000000   1309949   1306080   1301601   1297260   1293800  
  8860.000000   1291757   1291409   1292728   1295469   1299231  
  8850.000000   1303585   1308147   1312599   1316690   1320211  
  8840.000000   1323022   1325014   1326164   1326505   1326207  
  8830.000000   1325495   1324664   1323980   1323642   1323736  
  8820.000000   1324203   1324903   1325633   1326249   1326671  
  8810.000000   1326947   1327173   1327489   1327986   1328701  
  8800.000000   1329615   1330681   1331865   1333147   1334518  
  8790.000000   1335932   1337279   1338389   1339061   1339169  
  8780.000000   1338734   1337971   1337242   1336937   1337344  
  8770.000000   1338510   1340222   1342049   1343502   1344185  
  8760.000000   1343947   1342914   1341437   1339972   1338934  
  8750.000000   1338608   1339098   1340363   1342253   1344575  
  8740.000000   1347100   1349595   1351815   1353562   1354709  
  8730.000000   1355257   1355338   1355174   1355013   1354994  
  8720.000000   1355118   1355205   1355015   1354332   1353109  
  8710.000000   1351495   1349814   1348446   1347694   1347681  
  8700.000000   1348340   1349470   1350855   1352361   1353997  
  8690.000000   1355869   1358119   1360809   1363879   1367135  
  8680.000000   1370326   1373205   1375627   1377554   1379066  
  8670.000000   1380277   1381310   1382248   1383149   1384036  
  8660.000000   1384909   1385741   1386488   1387095   1387514  
  8650.000000   1387747   1387866   1388038   1388468   1389369  
  8640.000000   1390876   1393005   1395632   1398531   1401448  
  8630.000000   1404162   1406534   1408497   1410046   1411193  
  8620.000000   1411977   1412461   1412752   1413014   1413439  
  8610.000000   1414214   1415443   1417115   1419087   1421141  
  8600.000000   1423056   1424678   1425959   1426933   1427677  
  8590.000000   1428247   1428664   1428935   1429109   1429321  
  8580.000000   1429774   1430719   1432326   1434632   1437438  
  8570.000000   1440400   1443104   1445216   1446572   1447202  
  8560.000000   1447295   1447059   1446641   1446061   1445253  
  8550.000000   1444148   1442762   1441259   1439939   1439150  
  8540.000000   1439165   1440081   1441771   1443927   1446148  
  8530.000000   1448056   1449398   1450098   1450265   1450144  
  8520.000000   1450050   1450296   1451129   1452671   1454886  
  8510.000000   1457573   1460412   1463014   1465032   1466220  
  8500.000000   1466524   1466052   1465058   1463826   1462625  
  8490.000000   1461619   1460892   1460463   1460351   1460628  
  8480.000000   1461392   1462765   1464779   1467391   1470427  
  8470.000000   1473655   1476815   1479700   1482204   1484280  
  8460.000000   1485956   1487213   1488043   1488376   1488180  
  8450.000000   1487454   1486294   1484909   1483589   1482678  
  8440.000000   1482465   1483193   1484972   1487794   1491463  
  8430.000000   1495655   1499928   1503796   1506798   1508607  
  8420.000000   1509137   1508554   1507255   1505747   1504534  
  8410.000000   1503972   1504179   1505035   1506230   1507417  
  8400.000000   1508292   1508711   1508663   1508280   1507725  
  8390.000000   1507159   1506663   1506260   1505940   1505700  
  8380.000000   1505566   1505584   1505794   1506209   1506761  
  8370.000000   1507344   1507803   1508013   1507903   1507484  
  8360.000000   1506837   1506078   1505326   1504642   1504025  
  8350.000000   1503414   1502725   1501879   1500838   1499631  
  8340.000000   1498350   1497145   1496166   1495551   1495374  
  8330.000000   1495643   1496284   1497150   1498054   1498800  
  8320.000000   1499233   1499251   1498844   1498064   1497047  
  8310.000000   1495936   1494886   1493996   1493318   1492842  
  8300.000000   1492508   1492253   1492021   1491834   1491758  
  8290.000000   1491918   1492437   1493402   1494806   1496506  
  8280.000000   1498220   1499569   1500183   1499790   1498324  
  8270.000000   1495954   1493065   1490185   1487830   1486387  
  8260.000000   1485971   1486452   1487471   1488610   1489474  
  8250.000000   1489835   1489640   1489000   1488075   1487000  
  8240.000000   1485811   1484450   1482830   1480892   1478676  
  8230.000000   1476323   1474030   1471992   1470305   1468956  
  8220.000000   1467812   1466708   1465494   1464111   1462589  
  8210.000000   1461026   1459522   1458134   1456850   1455620  
  8200.000000   1454387   1453135   1451913   1450802   1449884  
  8190.000000   1449179   1448616   1448033   1447232   1446039  
  8180.000000   1444380   1442301   1439968   1437611   1435467  
  8170.000000   1433714   1432425   1431560   1430983   1430510  
  8160.000000   1429964   1429223   1428250   1427093   1425866  
  8150.000000   1424705   1423717   1422939   1422319   1421743  
  8140.000000   1421081   1420251   1419258   1418189   1417185  
  8130.000000   1416360   1415751   1415271   1414742   1413938  
  8120.000000   1412694   1410955   1408831   1406558   1404430  
  8110.000000   1402713   1401561   1401004   1400951   1401253  
  8100.000000   1401750   1402316   1402863   1403335   1403678  
  8090.000000   1403833   1403745   1403378   1402744   1401898  
  8080.000000   1400933   1399928   1398934   1397947   1396923  
  8070.000000   1395816   1394600   1393313   1392025   1390843  
  8060.000000   1389840   1389053   1388455   1387981   1387559  
  8050.000000   1387134   1386695   1386249   1385815   1385378  
  8040.000000   1384896   1384291   1383494   1382469   1381249  
  8030.000000   1379939   1378696   1377690   1377055   1376855  
  8020.000000   1377058   1377555   1378171   1378717   1379021  
  8010.000000   1378978   1378553   1377802   1376843   1375831  
  8000.000000   1374916   1374191   1373683   1373319   1372965  
  7990.000000   1372444   1371600   1370342   1368681   1366750  
  7980.000000   1364773   1363031   1361783   1361211   1361354  
  7970.000000   1362106   1363229   1364416   1365375   1365894  
  7960.000000   1365900   1365451   1364718   1363897   1363159  
  7950.000000   1362578   1362143   1361761   1361334   1360791  
  7940.000000   1360141   1359460   1358858   1358441   1358256  
  7930.000000   1358292   1358477   1358733   1359005   1359289  
  7920.000000   1359631   1360095   1360729   1361523   1362408  
  7910.000000   1363259   1363944   1364348   1364425   1364188  
  7900.000000   1363721   1363128   1362521   1361977   1361539  
  7890.000000   1361212   1360980   1360830   1360765   1360818  
  7880.000000   1361029   1361447   1362083   1362917   1363868  
  7870.000000   1364825   1365664   1366288   1366658   1366799  
  7860.000000   1366800   1366765   1366779   1366863   1366967  
  7850.000000   1366980   1366783   1366296   1365521   1364550  
  7840.000000   1363545   1362682   1362098   1361855   1361922  
  7830.000000   1362207   1362593   1362984   1363329   1363633  
  7820.000000   1363929   1364259   1364641   1365068   1365502  
  7810.000000   1365892   1366192   1366364   1366386   1366240  
  7800.000000   1365909   1365382   1364648   1363724   1362648  
  7790.000000   1361494   1360353   1359322   1358478   1357862  
  7780.000000   1357461   1357221   1357047   1356837   1356500  
  7770.000000   1355989   1355312   1354533   1353759   1353107  
  7760.000000   1352668   1352481   1352517   1352684   1352857  
  7750.000000   1352910   1352758   1352367   1351763   1351001  
  7740.000000   1350149   1349251   1348333   1347398   1346455  
  7730.000000   1345531   1344684   1343990   1343518   1343315  
  7720.000000   1343375   1343652   1344068   1344535   1344983  
  7710.000000   1345361   1345646   1345816   1345855   1345740  
  7700.000000   1345454   1344999   1344410   1343758   1343138  
  7690.000000   1342640   1342326   1342209   1342241   1342337  
  7680.000000   1342397   1342339   1342119   1341743   1341256  
  7670.000000   1340720   1340202   1339740   1339347   1339002  
  7660.000000   1338672   1338318   1337929   1337519   1337145  
  7650.000000   1336883   1336812   1336983   1337397   1338001  
  7640.000000   1338698   1339378   1339959   1340407   1340756  
  7630.000000   1341077   1341448   1341896   1342387   1342809  
  7620.000000   1343028   1342930   1342478   1341736   1340855  
  7610.000000   1340033   1339445   1339200   1339308   1339696  
  7600.000000   1340249   1340853   1341426   1341924   1342325  
  7590.000000   1342606   1342738   1342688   1342455   1342082  
  7580.000000   1341681   1341397   1341376   1341707   1342385  
  7570.000000   1343307   1344303   1345204   1345896   1346367  
  7560.000000   1346696   1347011   1347427   1347996   1348687  
  7550.000000   1349393   1349984   1350352   1350464   1350364  
  7540.000000   1350159   1349982   1349949   1350131   1350543  
  7530.000000   1351145   1351870   1352634   1353370   1354024  
  7520.000000   1354578   1355043   1355468   1355921   1356489  
  7510.000000   1357240   1358219   1359418   1360792   1362254  
  7500.000000   1363708   1365066   1366275   1367314   1368206  
  7490.000000   1368984   1369696   1370378   1371060   1371756  
  7480.000000   1372478   1373237   1374045   1374924   1375896  
  7470.000000   1376981   1378190   1379517   1380930   1382375  
  7460.000000   1383789   1385102   1386275   1387299   1388224  
  7450.000000   1389123   1390092   1391207   1392514   1394002  
  7440.000000   1395627   1397314   1399003   1400651   1402247  
  7430.000000   1403802   1405337   1406868   1408407   1409957  
  7420.000000   1411535   1413167   1414893   1416747   1418743  
  7410.000000   1420859   1423039   1425201   1427265   1429169  
  7400.000000   1430895   1432453   1433883   1435226   1436521  
  7390.000000   1437793   1439067   1440370   1441739   1443227  
  7380.000000   1444877   1446719   1448738   1450891   1453096  
  7370.000000   1455263   1457301   1459143   1460756   1462138  
  7360.000000   1463321   1464359   1465321   1466272   1467266  
  7350.000000   1468329   1469457   1470627   1471803   1472961  
  7340.000000   1474099   1475249   1476460   1477781   1479229  
  7330.000000   1480791   1482411   1484027   1485586   1487077  
  7320.000000   1488538   1490037   1491648   1493404   1495278  
  7310.000000   1497175   1498957   1500486   1501673   1502504  
  7300.000000   1503057   1503476   1503941   1504614   1505600  
  7290.000000   1506929   1508549   1510347   1512177   1513905  
  7280.000000   1515438   1516746   1517856   1518850   1519830  
  7270.000000   1520888   1522087   1523432   1524890   1526386  
  7260.000000   1527850   1529215   1530447   1531536   1532501  
  7250.000000   1533374   1534207   1535061   1536014   1537150  
  7240.000000   1538551   1540265   1542299   1544589   1547030  
  7230.000000   1549477   1551810   1553939   1555854   1557597  
  7220.000000   1559274   1560997   1562882   1565004   1567415  
  7210.000000   1570119   1573103   1576311   1579676   1583100  
  7200.000000   1586491   1589758   1592853   1595766   1598554  
  7190.000000   1601304   1604136   1607144   1610389   1613856  
  7180.000000   1617481   1621150   1624752   1628195   1631444  
  7170.000000   1634509   1637463   1640389   1643389   1646519  
  7160.000000   1649813   1653247   1656789   1660390   1664046  
  7150.000000   1667777   1671656   1675763   1680178   1684917  
  7140.000000   1689944   1695138   1700367   1705491   1710454  
  7130.000000   1715251   1719975   1724727   1729628   1734728  
  7120.000000   1740034   1745479   1750992   1756500   1761984  
  7110.000000   1767450   1772943   1778495   1784123   1789811  
  7100.000000   1795536   1801275   1807030   1812816   1818661  
  7090.000000   1824569   1830522   1836464   1842334   1848078  
  7080.000000   1853686   1859182   1864630   1870094   1875624  
  7070.000000   1881235   1886914   1892632   1898365   1904104  
  7060.000000   1909855   1915633   1921448   1927296   1933163  
  7050.000000   1939032   1944888   1950725   1956538   1962316  
  7040.000000   1968033   1973654   1979141   1984475   1989658  
  7030.000000   1994730   1999742   2004752   2009799   2014904  
  7020.000000   2020055   2025239   2030422   2035584   2040688  
  7010.000000   2045701   2050574   2055270   2059758   2064048  
  7000.000000   2068169   2072186   2076153   2080118   2084081  
  6990.000000   2088032   2091937   2095789   2099594   2103397  
  6980.000000   2107229   2111111   2115002   2118830   2122489  
  6970.000000   2125898   2129008   2131843   2134462   2136963  
  6960.000000   2139419   2141886   2144371   2146872   2149367  
  6950.000000   2151856   2154330   2156795   2159223   2161586  
  6940.000000   2163829   2165917   2167829   2169592   2171244  
  6930.000000   2172845   2174432   2176020   2177587   2179107  
  6920.000000   2180548   2181907   2183190   2184429   2185641  
  6910.000000   2186845   2188033   2189201   2190342   2191461  
  6900.000000   2192567   2193668   2194756   2195807   2196782  
  6890.000000   2197645   2198374   2198983   2199509   2200015  
  6880.000000   2200563   2201209   2201983   2202896   2203932  
  6870.000000   2205064   2206239   2207401   2208484   2209434  
  6860.000000   2210210   2210809   2211258   2211615   2211949  
  6850.000000   2212319   2212760   2213276   2213844   2214429  
  6840.000000   2214996   2215525   2216007   2216455   2216886  
  6830.000000   2217332   2217819   2218383   2219043   2219804  
  6820.000000   2220633   2221472   2222233   2222834   2223219  
  6810.000000   2223377   2223345   2223193   2222987   2222773  
  6800.000000   2222549   2222292   2221964   2221570   2221148  
  6790.000000   2220792   2220591   2220622   2220885   2221319  
  6780.000000   2221799   2222186   2222368   2222279   2221923  
  6770.000000   2221345   2220614   2219796   2218942   2218092  
  6760.000000   2217280   2216548   2215937   2215487   2215217  
  6750.000000   2215126   2215182   2215340   2215546   2215750  
  6740.000000   2215909   2215986   2215951   2215784   2215485  
  6730.000000   2215074   2214606   2214147   2213770   2213523  
  6720.000000   2213422   2213446   2213541   2213655   2213740  
  6710.000000   2213777   2213755   2213681   2213549   2213352  
  6700.000000   2213076   2212713   2212274   2211784   2211273  
  6690.000000   2210768   2210270   2209766   2209223   2208621  
  6680.000000   2207951   2207237   2206508   2205803   2205139  
  6670.000000   2204511   2203887   2203231   2202507   2201698  
  6660.000000   2200802   2199834   2198806   2197738   2196642  
  6650.000000   2195536   2194437   2193369   2192344   2191369  
  6640.000000   2190432   2189515   2188597   2187672   2186741  
  6630.000000   2185815   2184894   2183967   2182998   2181944  
  6620.000000   2180768   2179466   2178065   2176625   2175205  
  6610.000000   2173848   2172551   2171275   2169947   2168511  
  6600.000000   2166931   2165223   2163434   2161629   2159864  
  6590.000000   2158169   2156543   2154968   2153415   2151862  
  6580.000000   2150296   2148713   2147116   2145514   2143925  
  6570.000000   2142377   2140905   2139534   2138273   2137090  
  6560.000000   2135921   2134676   2133274   2131666   2129859  
  6550.000000   2127916   2125937   2124027   2122263   2120680  
  6540.000000   2119271   2118000   2116823   2115702   2114606  
  6530.000000   2113509   2112385   2111200   2109931   2108567  
  6520.000000   2107123   2105636   2104153   2102716   2101345  
  6510.000000   2100036   2098770   2097528   2096302   2095102  
  6500.000000   2093939   2092818   2091719   2090599   2089407  
  6490.000000   2088104   2086685   2085181   2083654   2082170  
  6480.000000   2080773   2079471   2078239   2077033   2075813  
  6470.000000   2074561   2073280   2071992   2070715   2069455  
  6460.000000   2068205   2066946   2065668   2064364   2063049  
  6450.000000   2061734   2060433   2059147   2057872   2056606  
  6440.000000   2055358   2054151   2053018   2051982   2051051  
  6430.000000   2050202   2049396   2048585   2047739   2046848  
  6420.000000   2045941   2045060   2044257   2043566   2043003  
  6410.000000   2042556   2042202   2041904   2041631   2041349  
  6400.000000   2041036   2040668   2040241   2039754   2039231  
  6390.000000   2038699   2038200   2037763   2037408   2037138  
  6380.000000   2036937   2036783   2036652   2036525   2036387  
  6370.000000   2036228   2036039   2035812   2035540   2035223  
  6360.000000   2034861   2034461   2034023   2033545   2033022  
  6350.000000   2032454   2031844   2031217   2030594   2030003  
  6340.000000   2029442   2028891   2028299   2027616   2026802  
  6330.000000   2025856   2024815   2023748   2022720   2021783  
  6320.000000   2020936   2020147   2019360   2018526   2017624  
  6310.000000   2016671   2015701   2014753   2013836   2012934  
  6300.000000   2012002   2010995   2009886   2008684   2007421  
  6290.000000   2006145   2004886   2003654   2002429   2001178  
  6280.000000   1999869   1998489   1997042   1995547   1994026  
  6270.000000   1992494   1990958   1989423   1987895   1986394  
  6260.000000   1984939   1983546   1982212   1980912   1979604  
  6250.000000   1978241   1976788   1975239   1973613   1971955  
  6240.000000   1970311   1968725   1967217   1965791   1964437  
  6230.000000   1963133   1961858   1960590   1959310   1958006  
  6220.000000   1956669   1955300   1953909   1952511   1951121  
  6210.000000   1949749   1948400   1947068   1945748   1944432  
  6200.000000   1943117   1941801   1940480   1939143   1937779  
  6190.000000   1936379   1934952   1933523   1932139   1930845  
  6180.000000   1929674   1928627   1927669   1926740   1925775  
  6170.000000   1924732   1923608   1922438   1921281   1920193  
  6160.000000   1919207   1918314   1917478   1916645   1915770  
  6150.000000   1914832   1913834   1912799   1911753   1910714  
  6140.000000   1909683   1908651   1907604   1906532   1905435  
  6130.000000   1904312   1903170   1902008   1900826   1899626  
  6120.000000   1898417   1897213   1896035   1894901   1893827  
  6110.000000   1892822   1891892   1891042   1890288   1889639  
  6100.000000   1889104   1888674   1888328   1888022   1887718  
  6090.000000   1887378   1886994   1886575   1886155   1885763  
  6080.000000   1885432   1885166   1884963   1884802   1884672  
  6070.000000   1884561   1884477   1884423   1884418   1884466  
  6060.000000   1884584   1884777   1885065   1885453   1885962  
  6050.000000   1886587   1887328   1888163   1889086   1890078  
  6040.000000   1891149   1892303   1893563   1894929   1896407  
  6030.000000   1897975   1899621   1901319   1903074   1904883  
  6020.000000   1906765   1908720   1910753   1912834   1914946  
  6010.000000   1917052   1919147   1921220   1923296   1925392  
  6000.000000   1927541   1929754   1932060   1934465   1936996  
  5990.000000   1939662   1942484   1945457   1948582   1951828  
  5980.000000   1955177   1958599   1962093   1965651   1969292  
  5970.000000   1973014   1976828   1980711   1984660   1988650  
  5960.000000   1992689   1996775   2000929   2005151   2009447  
  5950.000000   2013794   2018181   2022589   2027026   2031511  
  5940.000000   2036077   2040755   2045561   2050488   2055505  
  5930.000000   2060570   2065635   2070659   2075604   2080442  
  5920.000000   2085136   2089653   2093954   2098017   2101832  
  5910.000000   2105419   2108808   2112044   2115165   2118210  
  5900.000000   2121201   2124174   2127150   2130176   2133274  
  5890.000000   2136474   2139760   2143103   2146439   2149706  
  5880.000000   2152842   2155814   2158609   2161235   2163707  
  5870.000000   2166046   2168262   2170373   2172396   2174357  
  5860.000000   2176288   2178220   2180173   2182163   2184188  
  5850.000000   2186251   2188351   2190494   2192683   2194915  
  5840.000000   2197173   2199429   2201654   2203829   2205951  
  5830.000000   2208039   2210123   2212227   2214366   2216528  
  5820.000000   2218695   2220841   2222956   2225043   2227115  
  5810.000000   2229187   2231255   2233308   2235317   2237277  
  5800.000000   2239188   2241107   2243080   2245185   2247434  
  5790.000000   2249828   2252275   2254676   2256872   2258735  
  5780.000000   2260119   2260934   2261096   2260583   2259396  
  5770.000000   2257613   2255340   2252748   2250000   2247269  
  5760.000000   2244657   2242233   2239988   2237902   2235926  
  5750.000000   2234051   2232270   2230607   2229074   2227678  
  5740.000000   2226399   2225203   2224058   2222934   2221825  
  5730.000000   2220727   2219647   2218576   2217508   2216425  
  5720.000000   2215323   2214202   2213085   2211988   2210932  
  5710.000000   2209921   2208951   2208009   2207092   2206202  
  5700.000000   2205349   2204547   2203796   2203085   2202388  
  5690.000000   2201683   2200953   2200208   2199459   2198735  
  5680.000000   2198037   2197356   2196646   2195853   2194911  
  5670.000000   2193770   2192390   2190755   2188852   2186693  
  5660.000000   2184291   2181688   2178937   2176118   2173307  
  5650.000000   2170579   2167974   2165507   2163157   2160897  
  5640.000000   2158699   2156554   2154468   2152457   2150536  
  5630.000000   2148704   2146952   2145258   2143613   2142008  
  5620.000000   2140454   2138957   2137526   2136149   2134813  
  5610.000000   2133496   2132193   2130911   2129674   2128509  
  5600.000000   2127436   2126455   2125547   2124675   2123805  
  5590.000000   2122907   2121969   2120991   2119981   2118949  
  5580.000000   2117905   2116861   2115833   2114838   2113894  
  5570.000000   2113009   2112177   2111378   2110578   2109750  
  5560.000000   2108872   2107942   2106969   2105964   2104936  
  5550.000000   2103882   2102791   2101654   2100472   2099264  
  5540.000000   2098056   2096880   2095754   2094681   2093647  
  5530.000000   2092635   2091628   2090624   2089627   2088645  
  5520.000000   2087676   2086713   2085736   2084729   2083682  
  5510.000000   2082601   2081499   2080392   2079280   2078156  
  5500.000000   2076996   2075787   2074520   2073209   2071877  
  5490.000000   2070545   2069218   2067879   2066496   2065037  
  5480.000000   2063485   2061850   2060164   2058471   2056805  
  5470.000000   2055181   2053590   2052011   2050419   2048806  
  5460.000000   2047175   2045537   2043898   2042255   2040594  
  5450.000000   2038896   2037154   2035375   2033585   2031815  
  5440.000000   2030091   2028422   2026806   2025230   2023689  
  5430.000000   2022180   2020717   2019306   2017955   2016649  
  5420.000000   2015384   2014150   2012969   2011869   2010903  
  5410.000000   2010103   2009492   2009044   2008728   2008486  
  5400.000000   2008298   2008141   2008043   2008019   2008109  
  5390.000000   2008313   2008649   2009096   2009671   2010373  
  5380.000000   2011239   2012276   2013513   2014923   2016504  
  5370.000000   2018212   2020054   2022012   2024128   2026399  
  5360.000000   2028872   2031525   2034393   2037448   2040749  
  5350.000000   2044300   2048194   2052444   2057125   2062203  
  5340.000000   2067712   2073588   2079879   2086552   2093689  
  5330.000000   2101270   2109366   2117917   2126958   2136412  
  5320.000000   2146343   2156718   2167669   2179201   2191457  
  5310.000000   2204410   2218145   2232577   2247755   2263596  
  5300.000000   2280182   2297481   2315620   2334596   2354527  
  5290.000000   2375367   2397148   2419731   2443051   2466916  
  5280.000000   2491261   2515972   2541102   2566671   2592819  
  5270.000000   2619586   2647010   2674978   2703328   2731832  
  5260.000000   2760298   2788616   2816767   2844820   2872831  
  5250.000000   2900842   2928758   2956453   2983679   3010290  
  5240.000000   3036121   3061207   3085560   3109355   3132634  
  5230.000000   3155521   3177934   3199854   3221090   3241591  
  5220.000000   3261214   3280019   3297990   3315298   3331971  
  5210.000000   3348159   3363806   3378941   3393402   3407168  
  5200.000000   3420099   3432265   3443636   3454370   3464469  
  5190.000000   3474052   3483041   3491465   3499195   3506252  
  5180.000000   3512557   3518197   3523149   3527521   3531280  
  5170.000000   3534500   3537128   3539237   3540799   3541916  
  5160.000000   3542578   3542868   3542737   3542219   3541232  
  5150.000000   3539799   3537875   3535525   3532747   3529629  
  5140.000000   3526177   3522461   3518477   3514283   3509879  
  5130.000000   3505314   3500581   3495705   3490657   3485448  
  5120.000000   3480057   3474520   3468859   3463142   3457405  
  5110.000000   3451693   3446002   3440332   3434653   3428959  
  5100.000000   3423239   3417514   3411795   3406100   3400424  
  5090.000000   3394759   3389081   3383384   3377662   3371931  
  5080.000000   3366202   3360494   3354800   3349117   3343416  
  5070.000000   3337683   3331896   3326053   3320143   3314168  
  5060.000000   3308111   3301967   3295718   3289369   3282924  
  5050.000000   3276411   3269852   3263277   3256696   3250116  
  5040.000000   3243526   3236921   3230289   3223633   3216954  
  5030.000000   3210257   3203544   3196814   3190065   3183295  
  5020.000000   3176513   3169731   3162975   3156265   3149632  
  5010.000000   3143092   3136670   3130373   3124222   3118216  
  5000.000000   3112373   3106685   3101165   3095797   3090596  
  4990.000000   3085550   3080686   3075997   3071515   3067229  
  4980.000000   3063162   3059289   3055629   3052157   3048905  
  4970.000000   3045862   3043076   3040537   3038288   3036301  
  4960.000000   3034601   3033148   3031968   3031031   3030382  
  4950.000000   3030010   3029972   3030256   3030913   3031918  
  4940.000000   3033314   3035069   3037225   3039750   3042684  
  4930.000000   3045988   3049692   3053748   3058182   3062947  
  4920.000000   3068072   3073520   3079325   3085455   3091944  
  4910.000000   3098764   3105943   3113454   3121311   3129481  
  4900.000000   3137950   3146668   3155597   3164682   3173875  
  4890.000000   3183134   3192410   3201665   3210833   3219865  
  4880.000000   3228668   3237184   3245311   3253007   3260184  
  4870.000000   3266824   3272853   3278274   3283026   3287137  
  4860.000000   3290568   3293379   3295562   3297199   3298294  
  4850.000000   3298933   3299120   3298933   3298377   3297528  
  4840.000000   3296402   3295071   3293559   3291933   3290218  
  4830.000000   3288476   3286739   3285063   3283482   3282038  
  4820.000000   3280750   3279631   3278676   3277874   3277213  
  4810.000000   3276674   3276254   3275936   3275725   3275605  
  4800.000000   3275579   3275631   3275769   3275986   3276297  
  4790.000000   3276703   3277218   3277829   3278533   3279301  
  4780.000000   3280115   3280947   3281788   3282628   3283473  
  4770.000000   3284324   3285190   3286068   3286959   3287859  
  4760.000000   3288771   3289697   3290647   3291625   3292633  
  4750.000000   3293666   3294706   3295733   3296725   3297666  
  4740.000000   3298549   3299376   3300160   3300913   3301651  
  4730.000000   3302379   3303098   3303804   3304492   3305157  
  4720.000000   3305806   3306445   3307096   3307766   3308478  
  4710.000000   3309232   3310049   3310928   3311898   3312979  
  4700.000000   3314222   3315667   3317372   3319368   3321685  
  4690.000000   3324315   3327242   3330416   3333794   3337308  
  4680.000000   3340911   3344540   3348158   3351713   3355189  
  4670.000000   3358551   3361809   3364964   3368058   3371120  
  4660.000000   3374209   3377370   3380656   3384103   3387748  
  4650.000000   3391609   3395692   3399993   3404488   3409144  
  4640.000000   3413916   3418758   3423622   3428475   3433280  
  4630.000000   3438018   3442659   3447187   3451564   3455768  
  4620.000000   3459754   3463505   3466982   3470178   3473064  
  4610.000000   3475644   3477894   3479833   3481447   3482777  
  4600.000000   3483829   3484663   3485299   3485801   3486177  
  4590.000000   3486469   3486653   3486737   3486670   3486437  
  4580.000000   3485985   3485309   3484383   3483232   3481870  
  4570.000000   3480348   3478697   3476965   3475172   3473343  
  4560.000000   3471474   3469572   3467627   3465647   3463629  
  4550.000000   3461583   3459508   3457410   3455285   3453135  
  4540.000000   3450964   3448784   3446618   3444488   3442415  
  4530.000000   3440403   3438452   3436532   3434628   3432706  
  4520.000000   3430775   3428832   3426933   3425106   3423431  
  4510.000000   3421938   3420705   3419740   3419111   3418813  
  4500.000000   3418913   3419397   3420335   3421708   3423591  
  4490.000000   3425966   3428921   3432446   3436638   3441481  
  4480.000000   3447059   3453329   3460346   3468044   3476458  
  4470.000000   3485514   3495236   3505545   3516452   3527864  
  4460.000000   3539776   3552090   3564799   3577820   3591147  
  4450.000000   3604715   3618514   3632488   3646622   3660874  
  4440.000000   3675238   3689696   3704241   3718864   3733528  
  4430.000000   3748194   3762776   3777209   3791385   3805258  
  4420.000000   3818744   3831845   3844512   3856772   3868570  
  4410.000000   3879906   3890687   3900882   3910385   3919182  
  4400.000000   3927225   3934573   3941266   3947440   3953191  
  4390.000000   3958680   3963999   3969278   3974565   3979933  
  4380.000000   3985381   3990939   3996583   4002329   4008162  
  4370.000000   4014105   4020149   4026307   4032550   4038858  
  4360.000000   4045170   4051449   4057627   4063696   4069595  
  4350.000000   4075353   4080902   4086285   4091428   4096391  
  4340.000000   4101117   4105667   4109949   4113895   4117215  
  4330.000000   4119571   4120450   4119385   4115964   4110053  
  4320.000000   4101791   4091676   4080420   4068873   4057804  
  4310.000000   4047826   4039265   4032220   4026571   4022111  
  4300.000000   4018607   4015869   4013780   4012253   4011268  
  4290.000000   4010762   4010732   4011115   4011928   4013136  
  4280.000000   4014773   4016818   4019262   4022046   4025094  
  4270.000000   4028316   4031602   4034843   4037884   4040544  
  4260.000000   4042569   4043689   4043616   4042146   4039181  
  4250.000000   4034809   4029258   4022916   4016195   4009533  
  4240.000000   4003242   3997558   3992537   3988171   3984340  
  4230.000000   3980926   3977787   3974811   3971908   3969010  
  4220.000000   3966090   3963121   3960145   3957188   3954352  
  4210.000000   3951701   3949351   3947349   3945761   3944574  
  4200.000000   3943784   3943324   3943155   3943197   3943423  
  4190.000000   3943773   3944253   3944830   3945538   3946356  
  4180.000000   3947326   3948425   3949691   3951100   3952697  
  4170.000000   3954474   3956499   3958790   3961436   3964461  
  4160.000000   3967938   3971860   3976264   3981101   3986374  
  4150.000000   3992016   3998033   4004366   4011043   4018027  
  4140.000000   4025367   4033039   4041096   4049504   4058300  
  4130.000000   4067430   4076912   4086685   4096775   4107149  
  4120.000000   4117862   4128923   4140412   4152355   4164823  
  4110.000000   4177818   4191365   4205415   4219936   4234834  
  4100.000000   4250040   4265452   4281007   4296640   4312326  
  4090.000000   4328048   4343807   4359603   4375422   4391254  
  4080.000000   4407057   4422819   4438483   4454042   4469426  
  4070.000000   4484616   4499510   4514073   4528189   4541842  
  4060.000000   4554938   4567498   4579451   4590836   4601579  
  4050.000000   4611727   4621222   4630140   4638451   4646249  
  4040.000000   4653493   4660244   4666419   4672054   4677069  
  4030.000000   4681530   4685405   4688793   4691680   4694138  
  4020.000000   4696107   4697635   4698704   4699373   4699614  
  4010.000000   4699530   4699175   4698546   4697451   4695895  
  4000.000000   4694101  
##END= 
