##TITLE= Sample 004 By ssteindl date Montag, November 19 2018
##JCAMP-DX= 4.24
##DATA TYPE= INFRARED SPECTRUM
##ORIGIN= Exported PE Spectrum Data File
##OWNER= Sandra Steindl
##DATE= 18/11/19
##TIME= 17:18:54.00
##SPECTROMETER/DATA SYSTEM= PERKIN-ELMER Frontier FT-IR/NIR IR
##INSTRUMENT PARAMETERS=
  APODIZATION=stark
  DETECTOR=INGAAS
##RESOLUTION= 16.000000
##DELTAX= -2.000000
##XUNITS= 1/CM
##YUNITS= A
##XFACTOR= 1.00
##YFACTOR= 0.00000011920928955078
##FIRSTX= 10000.00
##LASTX= 4000.00
##NPOINTS= 3001
##FIRSTY= 0.183626
##MAXY= 0.589638
##MINY= 0.158753
##XYDATA= (X++(Y..Y))
 10000.000000   1540363   1542624   1544601   1545826   1546005  
  9990.000000   1545159   1543535   1541537   1539629   1538101  
  9980.000000   1536857   1535416   1533131   1529551   1524670  
  9970.000000   1519088   1513797   1509882   1508072   1508550  
  9960.000000   1510880   1514258   1517760   1520650   1522467  
  9950.000000   1523067   1522501   1520961   1518729   1516189  
  9940.000000   1513789   1511933   1510826   1510301   1509830  
  9930.000000   1508620   1505979   1501563   1495625   1488895  
  9920.000000   1482358   1476796   1472578   1469527   1467210  
  9910.000000   1465229   1463543   1462550   1462883   1465105  
  9900.000000   1469379   1475361   1482343   1489515   1496285  
  9890.000000   1502319   1507523   1511751   1514744   1516073  
  9880.000000   1515440   1512918   1509148   1505278   1502504  
  9870.000000   1501692   1502842   1505224   1507574   1508804  
  9860.000000   1508409   1506701   1504549   1502823   1501887  
  9850.000000   1501255   1499869   1496547   1490730   1482816  
  9840.000000   1474195   1466763   1462221   1461542   1464629  
  9830.000000   1470621   1478210   1486253   1493949   1500904  
  9820.000000   1506916   1511727   1514984   1516260   1515357  
  9810.000000   1512388   1507889   1502567   1497096   1491873  
  9800.000000   1486967   1482347   1478001   1474240   1471476  
  9790.000000   1470148   1470282   1471441   1472745   1473210  
  9780.000000   1472163   1469468   1465619   1461388   1457547  
  9770.000000   1454430   1451976   1449804   1447627   1445477  
  9760.000000   1443781   1443183   1444141   1446702   1450362  
  9750.000000   1454337   1457907   1460739   1463015   1465163  
  9740.000000   1467573   1470151   1472330   1473190   1471957  
  9730.000000   1468396   1463045   1457106   1452022   1449011  
  9720.000000   1448605   1450621   1454256   1458521   1462533  
  9710.000000   1465739   1467901   1468949   1468886   1467702  
  9700.000000   1465503   1462552   1459369   1456591   1454810  
  9690.000000   1454341   1455120   1456780   1458815   1460865  
  9680.000000   1462783   1464686   1466720   1468924   1471065  
  9670.000000   1472719   1473423   1472903   1471243   1468844  
  9660.000000   1466322   1464200   1462764   1461922   1461308  
  9650.000000   1460452   1458961   1456699   1453756   1450483  
  9640.000000   1447325   1444834   1443524   1443851   1446056  
  9630.000000   1450054   1455338   1460968   1465763   1468556  
  9620.000000   1468557   1465593   1460197   1453475   1446799  
  9610.000000   1441417   1438157   1437238   1438324   1440675  
  9600.000000   1443382   1445579   1446603   1446089   1444012  
  9590.000000   1440678   1436689   1432812   1429857   1428431  
  9580.000000   1428839   1430935   1434259   1438154   1442006  
  9570.000000   1445426   1448248   1450544   1452409   1453940  
  9560.000000   1455134   1455981   1456538   1456966   1457517  
  9550.000000   1458364   1459458   1460419   1460577   1459223  
  9540.000000   1455843   1450458   1443628   1436436   1430092  
  9530.000000   1425655   1423648   1424000   1426054   1428833  
  9520.000000   1431301   1432612   1432287   1430208   1426636  
  9510.000000   1422033   1417030   1412222   1408147   1405131  
  9500.000000   1403308   1402587   1402743   1403536   1404769  
  9490.000000   1406395   1408403   1410803   1413470   1416136  
  9480.000000   1418438   1419980   1420527   1419997   1418545  
  9470.000000   1416419   1413900   1411173   1408324   1405389  
  9460.000000   1402452   1399713   1397471   1396034   1395576  
  9450.000000   1396048   1397165   1398501   1399628   1400268  
  9440.000000   1400375   1400138   1399888   1399979   1400660  
  9430.000000   1402032   1404040   1406510   1409194   1411777  
  9420.000000   1413942   1415358   1415788   1415094   1413294  
  9410.000000   1410564   1407187   1403531   1399945   1396761  
  9400.000000   1394255   1392696   1392319   1393273   1395495  
  9390.000000   1398593   1401843   1404310   1405161   1403916  
  9380.000000   1400712   1396269   1391741   1388348   1386997  
  9370.000000   1388008   1391040   1395302   1399848   1403921  
  9360.000000   1407095   1409321   1410738   1411523   1411719  
  9350.000000   1411241   1409986   1407960   1405414   1402747  
  9340.000000   1400405   1398667   1397520   1396682   1395703  
  9330.000000   1394229   1392146   1389677   1387274   1385463  
  9320.000000   1384613   1384847   1385954   1387553   1389195  
  9310.000000   1390582   1391604   1392343   1392963   1393592  
  9300.000000   1394235   1394710   1394693   1393772   1391635  
  9290.000000   1388143   1383460   1378000   1372367   1367217  
  9280.000000   1363077   1360266   1358780   1358385   1358701  
  9270.000000   1359357   1360121   1360920   1361834   1362908  
  9260.000000   1364098   1365156   1365770   1365617   1364586  
  9250.000000   1362826   1360818   1359232   1358754   1359840  
  9240.000000   1362554   1366557   1371196   1375674   1379258  
  9230.000000   1381426   1382007   1381156   1379299   1376988  
  9220.000000   1374764   1373081   1372199   1372216   1373032  
  9210.000000   1374485   1376367   1378545   1380902   1383337  
  9200.000000   1385656   1387565   1388686   1388619   1387093  
  9190.000000   1384042   1379747   1374768   1369880   1365830  
  9180.000000   1363152   1362061   1362413   1363825   1365756  
  9170.000000   1367745   1369455   1370783   1371750   1372508  
  9160.000000   1373228   1374077   1375140   1376370   1377606  
  9150.000000   1378564   1378951   1378456   1376903   1374256  
  9140.000000   1370690   1366521   1362086   1357686   1353515  
  9130.000000   1349732   1346485   1344014   1342612   1342602  
  9120.000000   1344140   1347079   1350864   1354647   1357540  
  9110.000000   1358822   1358230   1355982   1352799   1349539  
  9100.000000   1346941   1345351   1344724   1344715   1344908  
  9090.000000   1345035   1345112   1345395   1346199   1347688  
  9080.000000   1349727   1351900   1353660   1354516   1354263  
  9070.000000   1353053   1351408   1349988   1349382   1349928  
  9060.000000   1351630   1354195   1357104   1359819   1361925  
  9050.000000   1363244   1363808   1363844   1363646   1363495  
  9040.000000   1363551   1363810   1364136   1364296   1364071  
  9030.000000   1363320   1362035   1360347   1358451   1356583  
  9020.000000   1354916   1353590   1352668   1352213   1352267  
  9010.000000   1352865   1353980   1355480   1357123   1358555  
  9000.000000   1359423   1359441   1358527   1356780   1354479  
  8990.000000   1351986   1349660   1347801   1346584   1346134  
  8980.000000   1346500   1347712   1349680   1352217   1354971  
  8970.000000   1357468   1359190   1359699   1358814   1356600  
  8960.000000   1353397   1349643   1345820   1342249   1339109  
  8950.000000   1336442   1334275   1332683   1331779   1331719  
  8940.000000   1332566   1334280   1336639   1339355   1342152  
  8930.000000   1344847   1347385   1349763   1351994   1353952  
  8920.000000   1355411   1356048   1355667   1354237   1352022  
  8910.000000   1349482   1347179   1345572   1344853   1344927  
  8900.000000   1345452   1346065   1346502   1346769   1347103  
  8890.000000   1347876   1349405   1351793   1354853   1358118  
  8880.000000   1361004   1362964   1363716   1363294   1362071  
  8870.000000   1360608   1359493   1359176   1359837   1361387  
  8860.000000   1363512   1365799   1367873   1369494   1370599  
  8850.000000   1371266   1371623   1371783   1371785   1371617  
  8840.000000   1371267   1370778   1370303   1370069   1370310  
  8830.000000   1371177   1372639   1374488   1376358   1377872  
  8820.000000   1378748   1378909   1378496   1377805   1377175  
  8810.000000   1376859   1376955   1377381   1377949   1378444  
  8800.000000   1378725   1378763   1378639   1378502   1378489  
  8790.000000   1378693   1379113   1379691   1380342   1380996  
  8780.000000   1381650   1382339   1383151   1384138   1385314  
  8770.000000   1386590   1387811   1388779   1389344   1389461  
  8760.000000   1389260   1389017   1389106   1389874   1391523  
  8750.000000   1394022   1397101   1400320   1403209   1405415  
  8740.000000   1406815   1407535   1407885   1408236   1408889  
  8730.000000   1409994   1411527   1413346   1415268   1417139  
  8720.000000   1418872   1420439   1421827   1423010   1423926  
  8710.000000   1424527   1424809   1424857   1424848   1424996  
  8700.000000   1425491   1426422   1427745   1429300   1430864  
  8690.000000   1432234   1433292   1434031   1434546   1434987  
  8680.000000   1435503   1436205   1437139   1438303   1439654  
  8670.000000   1441140   1442710   1444323   1445944   1447538  
  8660.000000   1449068   1450490   1451753   1452787   1453537  
  8650.000000   1453948   1454027   1453817   1453436   1453033  
  8640.000000   1452785   1452836   1453274   1454132   1455395  
  8630.000000   1457044   1459050   1461415   1464133   1467186  
  8620.000000   1470487   1473897   1477242   1480337   1483052  
  8610.000000   1485300   1487074   1488384   1489253   1489677  
  8600.000000   1489666   1489258   1488566   1487795   1487220  
  8590.000000   1487132   1487741   1489119   1491157   1493612  
  8580.000000   1496164   1498527   1500526   1502147   1503524  
  8570.000000   1504880   1506436   1508337   1510593   1513093  
  8560.000000   1515632   1517986   1519981   1521535   1522682  
  8550.000000   1523532   1524217   1524826   1525356   1525725  
  8540.000000   1525800   1525493   1524829   1523996   1523301  
  8530.000000   1523112   1523701   1525171   1527373   1529968  
  8520.000000   1532516   1534638   1536123   1536984   1537419  
  8510.000000   1537704   1538078   1538650   1539395   1540176  
  8500.000000   1540862   1541361   1541692   1541921   1542133  
  8490.000000   1542375   1542640   1542902   1543147   1543439  
  8480.000000   1543922   1544787   1546186   1548173   1550665  
  8470.000000   1553457   1556271   1558841   1560985   1562612  
  8460.000000   1563730   1564381   1564647   1564601   1564344  
  8450.000000   1563984   1563661   1563521   1563669   1564158  
  8440.000000   1564935   1565914   1566988   1568122   1569346  
  8430.000000   1570757   1572456   1574462   1576676   1578838  
  8420.000000   1580631   1581741   1582006   1581452   1580314  
  8410.000000   1578988   1577920   1577512   1577996   1579435  
  8400.000000   1581695   1584531   1587581   1590492   1592937  
  8390.000000   1594695   1595648   1595809   1595301   1594327  
  8380.000000   1593111   1591838   1590621   1589483   1588385  
  8370.000000   1587260   1586054   1584763   1583433   1582146  
  8360.000000   1580971   1579951   1579093   1578391   1577853  
  8350.000000   1577515   1577453   1577752   1578473   1579624  
  8340.000000   1581132   1582862   1584644   1586314   1587754  
  8330.000000   1588894   1589720   1590227   1590426   1590298  
  8320.000000   1589839   1589036   1587922   1586556   1585049  
  8310.000000   1583540   1582178   1581111   1580447   1580268  
  8300.000000   1580599   1581432   1582696   1584285   1586048  
  8290.000000   1587822   1589445   1590784   1591761   1592345  
  8280.000000   1592575   1592511   1592238   1591822   1591310  
  8270.000000   1590723   1590061   1589325   1588528   1587728  
  8260.000000   1587006   1586480   1586242   1586361   1586821  
  8250.000000   1587537   1588332   1589006   1589363   1589301  
  8240.000000   1588823   1588057   1587204   1586482   1586047  
  8230.000000   1585927   1586010   1586056   1585788   1584973  
  8220.000000   1583504   1581450   1579018   1576531   1574308  
  8210.000000   1572621   1571598   1571243   1571418   1571931  
  8200.000000   1572554   1573096   1573400   1573367   1572940  
  8190.000000   1572107   1570887   1569329   1567511   1565524  
  8180.000000   1563468   1561421   1559433   1557514   1555644  
  8170.000000   1553786   1551904   1549989   1548056   1546162  
  8160.000000   1544380   1542806   1541523   1540596   1540049  
  8150.000000   1539855   1539931   1540144   1540336   1540350  
  8140.000000   1540072   1539450   1538508   1537321   1536001  
  8130.000000   1534644   1533316   1532037   1530790   1529548  
  8120.000000   1528292   1527033   1525796   1524619   1523515  
  8110.000000   1522475   1521463   1520433   1519356   1518226  
  8100.000000   1517068   1515915   1514799   1513728   1512689  
  8090.000000   1511662   1510644   1509664   1508785   1508083  
  8080.000000   1507614   1507377   1507303   1507262   1507103  
  8070.000000   1506688   1505944   1504867   1503531   1502046  
  8060.000000   1500539   1499115   1497844   1496761   1495877  
  8050.000000   1495188   1494684   1494351   1494170   1494114  
  8040.000000   1494145   1494223   1494305   1494354   1494341  
  8030.000000   1494242   1494051   1493759   1493379   1492922  
  8020.000000   1492407   1491844   1491232   1490562   1489818  
  8010.000000   1489005   1488145   1487306   1486566   1486018  
  8000.000000   1485706   1485633   1485727   1485879   1485966  
  7990.000000   1485889   1485603   1485109   1484444   1483635  
  7980.000000   1482684   1481550   1480190   1478584   1476790  
  7970.000000   1474949   1473269   1471963   1471181   1470958  
  7960.000000   1471193   1471687   1472208   1472561   1472663  
  7950.000000   1472537   1472303   1472094   1472018   1472087  
  7940.000000   1472245   1472378   1472389   1472228   1471928  
  7930.000000   1471578   1471292   1471158   1471204   1471394  
  7920.000000   1471648   1471879   1472029   1472083   1472069  
  7910.000000   1472035   1472015   1472033   1472078   1472140  
  7900.000000   1472217   1472329   1472510   1472785   1473139  
  7890.000000   1473500   1473743   1473718   1473303   1472439  
  7880.000000   1471171   1469631   1468013   1466518   1465299  
  7870.000000   1464440   1463946   1463776   1463867   1464177  
  7860.000000   1464673   1465337   1466126   1466960   1467719  
  7850.000000   1468264   1468481   1468315   1467804   1467054  
  7840.000000   1466225   1465464   1464874   1464488   1464264  
  7830.000000   1464134   1464014   1463865   1463673   1463469  
  7820.000000   1463279   1463125   1462986   1462818   1462555  
  7810.000000   1462125   1461477   1460571   1459402   1457980  
  7800.000000   1456344   1454551   1452681   1450839   1449135  
  7790.000000   1447687   1446585   1445894   1445629   1445766  
  7780.000000   1446234   1446928   1447719   1448455   1448984  
  7770.000000   1449169   1448923   1448222   1447137   1445809  
  7760.000000   1444435   1443211   1442283   1441706   1441434  
  7750.000000   1441344   1441278   1441103   1440746   1440214  
  7740.000000   1439570   1438906   1438292   1437761   1437304  
  7730.000000   1436885   1436471   1436047   1435629   1435240  
  7720.000000   1434905   1434623   1434374   1434121   1433830  
  7710.000000   1433483   1433085   1432650   1432198   1431734  
  7700.000000   1431253   1430748   1430219   1429689   1429201  
  7690.000000   1428803   1428536   1428410   1428405   1428468  
  7680.000000   1428538   1428559   1428494   1428323   1428044  
  7670.000000   1427665   1427210   1426719   1426261   1425921  
  7660.000000   1425789   1425923   1426323   1426910   1427545  
  7650.000000   1428064   1428337   1428307   1428020   1427596  
  7640.000000   1427190   1426929   1426870   1426984   1427182  
  7630.000000   1427361   1427457   1427470   1427456   1427502  
  7620.000000   1427669   1427973   1428370   1428785   1429145  
  7610.000000   1429412   1429598   1429744   1429897   1430072  
  7600.000000   1430251   1430377   1430402   1430297   1430088  
  7590.000000   1429843   1429657   1429613   1429762   1430109  
  7580.000000   1430620   1431248   1431955   1432720   1433547  
  7570.000000   1434438   1435387   1436358   1437301   1438152  
  7560.000000   1438870   1439436   1439883   1440260   1440640  
  7550.000000   1441079   1441608   1442219   1442878   1443538  
  7540.000000   1444166   1444753   1445327   1445938   1446650  
  7530.000000   1447512   1448544   1449725   1451008   1452327  
  7520.000000   1453632   1454885   1456086   1457239   1458360  
  7510.000000   1459446   1460493   1461489   1462448   1463409  
  7500.000000   1464454   1465673   1467146   1468903   1470909  
  7490.000000   1473074   1475279   1477414   1479414   1481268  
  7480.000000   1483017   1484715   1486411   1488104   1489772  
  7470.000000   1491360   1492835   1494183   1495439   1496658  
  7460.000000   1497908   1499245   1500712   1502337   1504142  
  7450.000000   1506151   1508380   1510832   1513476   1516238  
  7440.000000   1519012   1521678   1524146   1526370   1528365  
  7430.000000   1530192   1531945   1533712   1535556   1537508  
  7420.000000   1539564   1541704   1543896   1546115   1548331  
  7410.000000   1550525   1552677   1554772   1556805   1558774  
  7400.000000   1560686   1562545   1564355   1566114   1567831  
  7390.000000   1569521   1571219   1572973   1574828   1576811  
  7380.000000   1578919   1581119   1583362   1585602   1587819  
  7370.000000   1590025   1592247   1594511   1596816   1599130  
  7360.000000   1601396   1603566   1605619   1607578   1609504  
  7350.000000   1611465   1613503   1615610   1617727   1619771  
  7340.000000   1621671   1623406   1625006   1626548   1628111  
  7330.000000   1629758   1631511   1633361   1635279   1637247  
  7320.000000   1639255   1641304   1643382   1645453   1647448  
  7310.000000   1649289   1650911   1652299   1653486   1654554  
  7300.000000   1655590   1656669   1657822   1659046   1660312  
  7290.000000   1661593   1662868   1664126   1665345   1666489  
  7280.000000   1667502   1668337   1668975   1669457   1669879  
  7270.000000   1670375   1671066   1672017   1673211   1674550  
  7260.000000   1675902   1677139   1678194   1679060   1679802  
  7250.000000   1680495   1681225   1682030   1682941   1683962  
  7240.000000   1685121   1686448   1687991   1689770   1691777  
  7230.000000   1693957   1696241   1698558   1700880   1703209  
  7220.000000   1705590   1708053   1710621   1713259   1715924  
  7210.000000   1718549   1721110   1723608   1726101   1728645  
  7200.000000   1731297   1734069   1736952   1739904   1742908  
  7190.000000   1745950   1749065   1752276   1755618   1759079  
  7180.000000   1762635   1766231   1769840   1773449   1777100  
  7170.000000   1780843   1784752   1788865   1793203   1797731  
  7160.000000   1802408   1807162   1811944   1816699   1821407  
  7150.000000   1826042   1830621   1835158   1839714   1844341  
  7140.000000   1849113   1854063   1859219   1864559   1870066  
  7130.000000   1875709   1881496   1887435   1893559   1899866  
  7120.000000   1906341   1912910   1919504   1926034   1932476  
  7110.000000   1938826   1945148   1951493   1957920   1964428  
  7100.000000   1971001   1977588   1984163   1990721   1997309  
  7090.000000   2003983   2010810   2017819   2025008   2032337  
  7080.000000   2039756   2047208   2054662   2062092   2069490  
  7070.000000   2076843   2084141   2091372   2098543   2105672  
  7060.000000   2112793   2119934   2127108   2134299   2141469  
  7050.000000   2148565   2155545   2162395   2169125   2175770  
  7040.000000   2182370   2188959   2195553   2202162   2208786  
  7030.000000   2215440   2222127   2228865   2235644   2242451  
  7020.000000   2249245   2255990   2262643   2269180   2275571  
  7010.000000   2281793   2287805   2293576   2299074   2304314  
  7000.000000   2309340   2314248   2319137   2324100   2329162  
  6990.000000   2334304   2339431   2344460   2349303   2353956  
  6980.000000   2358444   2362854   2367247   2371673   2376105  
  6970.000000   2380491   2384745   2388806   2392631   2396225  
  6960.000000   2399602   2402797   2405816   2408682   2411398  
  6950.000000   2414005   2416540   2419073   2421646   2424291  
  6940.000000   2426981   2429672   2432280   2434744   2437012  
  6930.000000   2439082   2440969   2442718   2444362   2445934  
  6920.000000   2447443   2448898   2450298   2451657   2452992  
  6910.000000   2454335   2455711   2457141   2458622   2460135  
  6900.000000   2461632   2463063   2464379   2465559   2466611  
  6890.000000   2467582   2468537   2469548   2470656   2471869  
  6880.000000   2473149   2474440   2475682   2476844   2477928  
  6870.000000   2478968   2480008   2481079   2482178   2483269  
  6860.000000   2484305   2485243   2486068   2486801   2487485  
  6850.000000   2488174   2488903   2489692   2490538   2491437  
  6840.000000   2492386   2493395   2494463   2495577   2496689  
  6830.000000   2497728   2498612   2499283   2499726   2499980  
  6820.000000   2500127   2500265   2500471   2500789   2501213  
  6810.000000   2501719   2502267   2502840   2503425   2504027  
  6800.000000   2504630   2505200   2505670   2505970   2506035  
  6790.000000   2505847   2505431   2504865   2504251   2503695  
  6780.000000   2503272   2503024   2502936   2502959   2503013  
  6770.000000   2503014   2502886   2502586   2502103   2501471  
  6760.000000   2500746   2500003   2499308   2498707   2498217  
  6750.000000   2497828   2497511   2497238   2496975   2496702  
  6740.000000   2496391   2496024   2495573   2495029   2494393  
  6730.000000   2493698   2492991   2492330   2491751   2491260  
  6720.000000   2490816   2490355   2489804   2489119   2488295  
  6710.000000   2487373   2486410   2485469   2484579   2483743  
  6700.000000   2482932   2482118   2481276   2480405   2479508  
  6690.000000   2478593   2477647   2476648   2475563   2474377  
  6680.000000   2473092   2471744   2470375   2469027   2467717  
  6670.000000   2466435   2465148   2463832   2462474   2461095  
  6660.000000   2459727   2458410   2457159   2455965   2454787  
  6650.000000   2453580   2452307   2450956   2449540   2448087  
  6640.000000   2446623   2445164   2443707   2442244   2440760  
  6630.000000   2439253   2437720   2436169   2434597   2433004  
  6620.000000   2431385   2429743   2428083   2426421   2424765  
  6610.000000   2423109   2421432   2419698   2417875   2415951  
  6600.000000   2413944   2411906   2409897   2407970   2406150  
  6590.000000   2404428   2402765   2401119   2399459   2397780  
  6580.000000   2396097   2394434   2392811   2391230   2389680  
  6570.000000   2388141   2386605   2385070   2383550   2382054  
  6560.000000   2380586   2379134   2377678   2376195   2374683  
  6550.000000   2373153   2371638   2370173   2368789   2367497  
  6540.000000   2366295   2365164   2364085   2363039   2362012  
  6530.000000   2360993   2359974   2358946   2357909   2356865  
  6520.000000   2355831   2354817   2353833   2352868   2351904  
  6510.000000   2350912   2349876   2348800   2347719   2346682  
  6500.000000   2345738   2344915   2344202   2343558   2342925  
  6490.000000   2342252   2341518   2340735   2339939   2339168  
  6480.000000   2338444   2337761   2337092   2336401   2335664  
  6470.000000   2334879   2334065   2333252   2332462   2331705  
  6460.000000   2330972   2330244   2329500   2328728   2327920  
  6450.000000   2327074   2326186   2325258   2324294   2323316  
  6440.000000   2322355   2321454   2320648   2319948   2319334  
  6430.000000   2318758   2318158   2317479   2316697   2315822  
  6420.000000   2314892   2313958   2313066   2312244   2311500  
  6410.000000   2310833   2310238   2309712   2309254   2308854  
  6400.000000   2308491   2308135   2307755   2307328   2306855  
  6390.000000   2306346   2305825   2305299   2304766   2304205  
  6380.000000   2303596   2302934   2302242   2301573   2300991  
  6370.000000   2300551   2300271   2300131   2300078   2300046  
  6360.000000   2299983   2299859   2299671   2299428   2299132  
  6350.000000   2298775   2298335   2297795   2297157   2296448  
  6340.000000   2295715   2295012   2294372   2293803   2293277  
  6330.000000   2292759   2292203   2291590   2290913   2290189  
  6320.000000   2289429   2288649   2287844   2287014   2286155  
  6310.000000   2285277   2284393   2283518   2282648   2281769  
  6300.000000   2280844   2279842   2278734   2277523   2276223  
  6290.000000   2274869   2273483   2272086   2270668   2269220  
  6280.000000   2267722   2266172   2264566   2262919   2261231  
  6270.000000   2259508   2257739   2255922   2254055   2252153  
  6260.000000   2250233   2248323   2246429   2244554   2242677  
  6250.000000   2240780   2238844   2236873   2234878   2232881  
  6240.000000   2230897   2228927   2226954   2224954   2222900  
  6230.000000   2220779   2218598   2216378   2214149   2211942  
  6220.000000   2209775   2207657   2205582   2203538   2201512  
  6210.000000   2199492   2197473   2195459   2193459   2191488  
  6200.000000   2189563   2187690   2185867   2184078   2182294  
  6190.000000   2180485   2178629   2176722   2174781   2172837  
  6180.000000   2170927   2169081   2167309   2165607   2163953  
  6170.000000   2162324   2160698   2159060   2157401   2155712  
  6160.000000   2153988   2152222   2150416   2148580   2146735  
  6150.000000   2144903   2143108   2141355   2139637   2137936  
  6140.000000   2136235   2134528   2132828   2131162   2129559  
  6130.000000   2128038   2126596   2125207   2123839   2122457  
  6120.000000   2121052   2119627   2118214   2116841   2115537  
  6110.000000   2114309   2113156   2112061   2111015   2110006  
  6100.000000   2109037   2108107   2107223   2106380   2105582  
  6090.000000   2104825   2104117   2103458   2102854   2102295  
  6080.000000   2101769   2101251   2100731   2100201   2099683  
  6070.000000   2099203   2098802   2098501   2098313   2098212  
  6060.000000   2098173   2098151   2098125   2098084   2098050  
  6050.000000   2098046   2098118   2098290   2098592   2099029  
  6040.000000   2099606   2100308   2101126   2102035   2103024  
  6030.000000   2104073   2105185   2106360   2107617   2108960  
  6020.000000   2110394   2111890   2113418   2114924   2116374  
  6010.000000   2117741   2119033   2120273   2121501   2122747  
  6000.000000   2124033   2125355   2126708   2128078   2129465  
  5990.000000   2130873   2132318   2133803   2135334   2136899  
  5980.000000   2138497   2140129   2141821   2143605   2145528  
  5970.000000   2147611   2149858   2152233   2154688   2157159  
  5960.000000   2159604   2161998   2164351   2166678   2169011  
  5950.000000   2171365   2173752   2176164   2178601   2181053  
  5940.000000   2183525   2186016   2188532   2191073   2193639  
  5930.000000   2196233   2198860   2201530   2204250   2207020  
  5920.000000   2209825   2212636   2215419   2218139   2220775  
  5910.000000   2223317   2225772   2228150   2230464   2232723  
  5900.000000   2234938   2237126   2239313   2241533   2243819  
  5890.000000   2246197   2248668   2251213   2253795   2256378  
  5880.000000   2258930   2261436   2263895   2266311   2268688  
  5870.000000   2271016   2273284   2275474   2277585   2279626  
  5860.000000   2281625   2283614   2285630   2287697   2289837  
  5850.000000   2292062   2294387   2296821   2299373   2302038  
  5840.000000   2304800   2307626   2310479   2313328   2316155  
  5830.000000   2318964   2321771   2324595   2327443   2330305  
  5820.000000   2333151   2335944   2338644   2341230   2343685  
  5810.000000   2346016   2348220   2350311   2352280   2354145  
  5800.000000   2355900   2357575   2359163   2360683   2362102  
  5790.000000   2363403   2364526   2365439   2366092   2366475  
  5780.000000   2366564   2366367   2365865   2365061   2363947  
  5770.000000   2362552   2360916   2359123   2357263   2355434  
  5760.000000   2353701   2352111   2350667   2349363   2348186  
  5750.000000   2347132   2346210   2345431   2344803   2344313  
  5740.000000   2343943   2343657   2343436   2343257   2343125  
  5730.000000   2343033   2342992   2342984   2343003   2343025  
  5720.000000   2343050   2343078   2343133   2343235   2343408  
  5710.000000   2343653   2343969   2344340   2344753   2345200  
  5700.000000   2345679   2346192   2346735   2347299   2347870  
  5690.000000   2348439   2349001   2349567   2350146   2350750  
  5680.000000   2351366   2351970   2352514   2352954   2353247  
  5670.000000   2353375   2353330   2353125   2352766   2352266  
  5660.000000   2351628   2350866   2349997   2349059   2348093  
  5650.000000   2347142   2346230   2345370   2344548   2343751  
  5640.000000   2342963   2342184   2341416   2340671   2339950  
  5630.000000   2339244   2338539   2337819   2337081   2336335  
  5620.000000   2335599   2334889   2334210   2333551   2332886  
  5610.000000   2332196   2331475   2330740   2330027   2329376  
  5600.000000   2328812   2328333   2327907   2327486   2327017  
  5590.000000   2326465   2325818   2325084   2324280   2323422  
  5580.000000   2322518   2321571   2320579   2319551   2318496  
  5570.000000   2317434   2316377   2315332   2314293   2313253  
  5560.000000   2312200   2311135   2310062   2308992   2307931  
  5550.000000   2306882   2305840   2304803   2303770   2302751  
  5540.000000   2301758   2300801   2299883   2298993   2298115  
  5530.000000   2297235   2296346   2295456   2294580   2293730  
  5520.000000   2292907   2292098   2291277   2290418   2289507  
  5510.000000   2288547   2287553   2286548   2285547   2284553  
  5500.000000   2283554   2282540   2281502   2280450   2279395  
  5490.000000   2278352   2277316   2276268   2275169   2273983  
  5480.000000   2272684   2271280   2269797   2268283   2266777  
  5470.000000   2265304   2263860   2262426   2260967   2259460  
  5460.000000   2257885   2256240   2254517   2252720   2250841  
  5450.000000   2248886   2246866   2244806   2242742   2240707  
  5440.000000   2238725   2236800   2234927   2233091   2231290  
  5430.000000   2229525   2227813   2226160   2224572   2223032  
  5420.000000   2221530   2220052   2218618   2217252   2216009  
  5410.000000   2214919   2214007   2213248   2212614   2212053  
  5400.000000   2211551   2211099   2210736   2210488   2210403  
  5390.000000   2210482   2210734   2211125   2211655   2212306  
  5380.000000   2213105   2214052   2215172   2216443   2217862  
  5370.000000   2219379   2220997   2222683   2224474   2226366  
  5360.000000   2228411   2230603   2232994   2235577   2238422  
  5350.000000   2241540   2245022   2248879   2253184   2257903  
  5340.000000   2263072   2268633   2274629   2281016   2287863  
  5330.000000   2295129   2302874   2311030   2319638   2328631  
  5320.000000   2338083   2347978   2358447   2369498   2381270  
  5310.000000   2393735   2406978   2420922   2435622   2451000  
  5300.000000   2467133   2483978   2501648   2520121   2539510  
  5290.000000   2559769   2580952   2602944   2625713   2649092  
  5280.000000   2673039   2697448   2722372   2747828   2773947  
  5270.000000   2800764   2828309   2856460   2885037   2913792  
  5260.000000   2942503   2971031   2999322   3027423   3055366  
  5250.000000   3083188   3110791   3138064   3164772   3190791  
  5240.000000   3215954   3240304   3263831   3286698   3308921  
  5230.000000   3330623   3351713   3372195   3391888   3410765  
  5220.000000   3428677   3445689   3461760   3477053   3491580  
  5210.000000   3505504   3518781   3531479   3543458   3554722  
  5200.000000   3565128   3574742   3583512   3591582   3598939  
  5190.000000   3605709   3611825   3617336   3622134   3626260  
  5180.000000   3629642   3632376   3634439   3635941   3636849  
  5170.000000   3637239   3637062   3636387   3635190   3633565  
  5160.000000   3631506   3629097   3626304   3623171   3619644  
  5150.000000   3615763   3611502   3606931   3602054   3596938  
  5140.000000   3591570   3585987   3580158   3574117   3567856  
  5130.000000   3561432   3554860   3548196   3541439   3534616  
  5120.000000   3527708   3520735   3513697   3506633   3499565  
  5110.000000   3492529   3485531   3478577   3471647   3464729  
  5100.000000   3457804   3450871   3443928   3436985   3430047  
  5090.000000   3423124   3416222   3409354   3402532   3395774  
  5080.000000   3389086   3382472   3375914   3369393   3362878  
  5070.000000   3356352   3349796   3343215   3336610   3329993  
  5060.000000   3323362   3316714   3310036   3303318   3296545  
  5050.000000   3289716   3282827   3275884   3268888   3261847  
  5040.000000   3254764   3247654   3240529   3233409   3226308  
  5030.000000   3219237   3212199   3205186   3198194   3191213  
  5020.000000   3184252   3177321   3170451   3163663   3156994  
  5010.000000   3150453   3144064   3137818   3131729   3125784  
  5000.000000   3120003   3114381   3108953   3103720   3098721  
  4990.000000   3093951   3089446   3085188   3081206   3077472  
  4980.000000   3074009   3070787   3067839   3065140   3062737  
  4970.000000   3060614   3058824   3057346   3056221   3055415  
  4960.000000   3054955   3054801   3054984   3055471   3056303  
  4950.000000   3057451   3058955   3060777   3062945   3065414  
  4940.000000   3068213   3071307   3074735   3078470   3082548  
  4930.000000   3086933   3091643   3096626   3101893   3107399  
  4920.000000   3113168   3119175   3125453   3131981   3138782  
  4910.000000   3145823   3153111   3160607   3168313   3176196  
  4900.000000   3184260   3192477   3200846   3209342   3217961  
  4890.000000   3226680   3235488   3244364   3253287   3262225  
  4880.000000   3271144   3280010   3288785   3297445   3305958  
  4870.000000   3314309   3322466   3330418   3338134   3345609  
  4860.000000   3352825   3359802   3366541   3373084   3379441  
  4850.000000   3385655   3391728   3397694   3403542   3409292  
  4840.000000   3414921   3420440   3425818   3431059   3436138  
  4830.000000   3441072   3445854   3450517   3455066   3459530  
  4820.000000   3463897   3468171   3472316   3476316   3480136  
  4810.000000   3483774   3487218   3490493   3493609   3496606  
  4800.000000   3499501   3502333   3505111   3507867   3510596  
  4790.000000   3513313   3515995   3518640   3521218   3523722  
  4780.000000   3526132   3528451   3530667   3532789   3534802  
  4770.000000   3536707   3538484   3540135   3541642   3543019  
  4760.000000   3544258   3545377   3546362   3547225   3547943  
  4750.000000   3548520   3548934   3549197   3549293   3549239  
  4740.000000   3549020   3548649   3548108   3547410   3546543  
  4730.000000   3545529   3544365   3543078   3541663   3540136  
  4720.000000   3538484   3536713   3534810   3532787   3530648  
  4710.000000   3528416   3526112   3523770   3521413   3519076  
  4700.000000   3516782   3514561   3512426   3510393   3508461  
  4690.000000   3506623   3504863   3503159   3501490   3499834  
  4680.000000   3498175   3496493   3494777   3493009   3491181  
  4670.000000   3489281   3487320   3485309   3483285   3481283  
  4660.000000   3479353   3477529   3475849   3474326   3472973  
  4650.000000   3471785   3470761   3469888   3469165   3468579  
  4640.000000   3468128   3467799   3467587   3467474   3467455  
  4630.000000   3467508   3467624   3467780   3467967   3468167  
  4620.000000   3468380   3468598   3468825   3469055   3469284  
  4610.000000   3469494   3469669   3469788   3469840   3469824  
  4600.000000   3469755   3469661   3469569   3469506   3469480  
  4590.000000   3469492   3469523   3469554   3469562   3469536  
  4580.000000   3469469   3469367   3469232   3469074   3468893  
  4570.000000   3468694   3468470   3468222   3467940   3467621  
  4560.000000   3467250   3466820   3466316   3465731   3465059  
  4550.000000   3464303   3463471   3462575   3461632   3460657  
  4540.000000   3459673   3458697   3457757   3456869   3456063  
  4530.000000   3455344   3454737   3454235   3453862   3453612  
  4520.000000   3453523   3453594   3453878   3454370   3455123  
  4510.000000   3456119   3457410   3458978   3460892   3463149  
  4500.000000   3465843   3468980   3472656   3476869   3481700  
  4490.000000   3487127   3493219   3499943   3507355   3515409  
  4480.000000   3524137   3533474   3543428   3553918   3564939  
  4470.000000   3576411   3588323   3600593   3613198   3626051  
  4460.000000   3639113   3652295   3665552   3678804   3692010  
  4450.000000   3705108   3718068   3730858   3743466   3755900  
  4440.000000   3768170   3780314   3792350   3804324   3816236  
  4430.000000   3828127   3839972   3851803   3863569   3875280  
  4420.000000   3886851   3898257   3909372   3920141   3930415  
  4410.000000   3940137   3949168   3957473   3964946   3971589  
  4400.000000   3977342   3982256   3986330   3989668   3992319  
  4390.000000   3994415   3996026   3997278   3998229   3998982  
  4380.000000   3999591   4000152   4000737   4001456   4002398  
  4370.000000   4003667   4005338   4007466   4010080   4013174  
  4360.000000   4016731   4020706   4025059   4029729   4034658  
  4350.000000   4039782   4045031   4050355   4055706   4061077  
  4340.000000   4066459   4071866   4077267   4082596   4087692  
  4330.000000   4092338   4096252   4099175   4100898   4101365  
  4320.000000   4100658   4099042   4096860   4094530   4092386  
  4310.000000   4090703   4089583   4089047   4088985   4089287  
  4300.000000   4089801   4090437   4091102   4091753   4092344  
  4290.000000   4092841   4093214   4093441   4093525   4093481  
  4280.000000   4093347   4093175   4093006   4092890   4092849  
  4270.000000   4092917   4093085   4093349   4093645   4093894  
  4260.000000   4093950   4093663   4092863   4091433   4089307  
  4250.000000   4086527   4083207   4079548   4075765   4072083  
  4240.000000   4068656   4065591   4062894   4060530   4058400  
  4230.000000   4056405   4054435   4052408   4050257   4047943  
  4220.000000   4045449   4042774   4039945   4036992   4033977  
  4210.000000   4030952   4027989   4025135   4022445   4019935  
  4200.000000   4017628   4015511   4013584   4011820   4010222  
  4190.000000   4008764   4007462   4006294   4005296   4004450  
  4180.000000   4003803   4003338   4003112   4003111   4003407  
  4170.000000   4004006   4005006   4006434   4008403   4010934  
  4160.000000   4014114   4017911   4022356   4027364   4032932  
  4150.000000   4038958   4045455   4052349   4059691   4067445  
  4140.000000   4075688   4084400   4093660   4103436   4113784  
  4130.000000   4124648   4136055   4147929   4160285   4173053  
  4120.000000   4186256   4199846   4213857   4228255   4243073  
  4110.000000   4258274   4273877   4289832   4306136   4322726  
  4100.000000   4339576   4356617   4373817   4391126   4408536  
  4090.000000   4426039   4443654   4461400   4479293   4497345  
  4080.000000   4515544   4533882   4552317   4570835   4589376  
  4070.000000   4607922   4626400   4644792   4663020   4681079  
  4060.000000   4698892   4716463   4733701   4750599   4767043  
  4050.000000   4783032   4798459   4813363   4827657   4841400  
  4040.000000   4854481   4866922   4878562   4889404   4899297  
  4030.000000   4908297   4916314   4923447   4929623   4934909  
  4020.000000   4939168   4942449   4944686   4945968   4946240  
  4010.000000   4945684   4944404   4942468   4939660   4936089  
  4000.000000   4932133  
##END= 
