##TITLE= Sample 020 By ssteindl date Montag, November 19 2018
##JCAMP-DX= 4.24
##DATA TYPE= INFRARED SPECTRUM
##ORIGIN= Exported PE Spectrum Data File
##OWNER= Sandra Steindl
##DATE= 18/11/19
##TIME= 16:33:38.00
##SPECTROMETER/DATA SYSTEM= PERKIN-ELMER Frontier FT-IR/NIR IR
##INSTRUMENT PARAMETERS=
  APODIZATION=stark
  DETECTOR=INGAAS
##RESOLUTION= 16.000000
##DELTAX= -2.000000
##XUNITS= 1/CM
##YUNITS= A
##XFACTOR= 1.00
##YFACTOR= 0.00000011920928955078
##FIRSTX= 10000.00
##LASTX= 4000.00
##NPOINTS= 3001
##FIRSTY= 0.163802
##MAXY= 0.560821
##MINY= 0.139834
##XYDATA= (X++(Y..Y))
 10000.000000   1374066   1375346   1375694   1374090   1370851  
  9990.000000   1367228   1364320   1362914   1363721   1367084  
  9980.000000   1372342   1377977   1382233   1383801   1382220  
  9970.000000   1378115   1372949   1368443   1365832   1365449  
  9960.000000   1366692   1368371   1369339   1368932   1367200  
  9950.000000   1364699   1362078   1359696   1357443   1354928  
  9940.000000   1351863   1348410   1345298   1343536   1343930  
  9930.000000   1346634   1350937   1355588   1359229   1361080  
  9920.000000   1361141   1360223   1359418   1359593   1360934  
  9910.000000   1362877   1364420   1364532   1362649   1358732  
  9900.000000   1353256   1346766   1339693   1332140   1324110  
  9890.000000   1315755   1307627   1300712   1296090   1294609  
  9880.000000   1296424   1301045   1307472   1314691   1321995  
  9870.000000   1329111   1336077   1342811   1348904   1353429  
  9860.000000   1355329   1353768   1348719   1341088   1332577  
  9850.000000   1325137   1320269   1318595   1319633   1322196  
  9840.000000   1324813   1326396   1326442   1325104   1322816  
  9830.000000   1320020   1316910   1313473   1309716   1305828  
  9820.000000   1302343   1299917   1299107   1300020   1302161  
  9810.000000   1304598   1306237   1306356   1304869   1302412  
  9800.000000   1300102   1299016   1299815   1302326   1305714  
  9790.000000   1308650   1309899   1308653   1304832   1299074  
  9780.000000   1292502   1286500   1282295   1280846   1282581  
  9770.000000   1287439   1294815   1303659   1312583   1320055  
  9760.000000   1324711   1325604   1322545   1316089   1307528  
  9750.000000   1298469   1290495   1284724   1281586   1280864  
  9740.000000   1281849   1283779   1286059   1288512   1291233  
  9730.000000   1294431   1298103   1301883   1305076   1306843  
  9720.000000   1306593   1304189   1300138   1295440   1291305  
  9710.000000   1288798   1288476   1290313   1293686   1297678  
  9700.000000   1301300   1303764   1304578   1303544   1300708  
  9690.000000   1296277   1290641   1284327   1278059   1272593  
  9680.000000   1268625   1266545   1266339   1267591   1269606  
  9670.000000   1271701   1273390   1274579   1275509   1276624  
  9660.000000   1278335   1280794   1283853   1287043   1289823  
  9650.000000   1291693   1292418   1292021   1290769   1289037  
  9640.000000   1287187   1285525   1284226   1283415   1283111  
  9630.000000   1283299   1283855   1284609   1285325   1285780  
  9620.000000   1285810   1285338   1284390   1283019   1281304  
  9610.000000   1279259   1276895   1274226   1271337   1268453  
  9600.000000   1265888   1264064   1263342   1264004   1266097  
  9590.000000   1269458   1273672   1278140   1282147   1284957  
  9580.000000   1285995   1284916   1281803   1277088   1271559  
  9570.000000   1266086   1261456   1258134   1256180   1255329  
  9560.000000   1255119   1255197   1255397   1255888   1256947  
  9550.000000   1258848   1261585   1264829   1268002   1270427  
  9540.000000   1271624   1271358   1269760   1267119   1263822  
  9530.000000   1260160   1256337   1252521   1248929   1245917  
  9520.000000   1243882   1243196   1243958   1245976   1248724  
  9510.000000   1251554   1253889   1255385   1256032   1255986  
  9500.000000   1255503   1254668   1253453   1251682   1249283  
  9490.000000   1246387   1243428   1241048   1239872   1240323  
  9480.000000   1242407   1245797   1249875   1254016   1257697  
  9470.000000   1260641   1262776   1264139   1264799   1264748  
  9460.000000   1263989   1262511   1260410   1257837   1254994  
  9450.000000   1252077   1249221   1246576   1244253   1242490  
  9440.000000   1241519   1241635   1242954   1245389   1248532  
  9430.000000   1251734   1254260   1255461   1254963   1252706  
  9420.000000   1248939   1244093   1238691   1233253   1228266  
  9410.000000   1224164   1221285   1219822   1219730   1220699  
  9400.000000   1222162   1223410   1223766   1222775   1220372  
  9390.000000   1216885   1212974   1209364   1206693   1205285  
  9380.000000   1205182   1206150   1207852   1209926   1212090  
  9370.000000   1214134   1215925   1217374   1218437   1219140  
  9360.000000   1219579   1219935   1220396   1221141   1222235  
  9350.000000   1223660   1225279   1226932   1228433   1229634  
  9340.000000   1230391   1230548   1229914   1228253   1225377  
  9330.000000   1221195   1215859   1209743   1203439   1197605  
  9320.000000   1192830   1189511   1187772   1187519   1188483  
  9310.000000   1190377   1192941   1196003   1199431   1203083  
  9300.000000   1206766   1210192   1213056   1215063   1216093  
  9290.000000   1216163   1215524   1214502   1213466   1212664  
  9280.000000   1212150   1211788   1211291   1210427   1209079  
  9270.000000   1207376   1205614   1204231   1203633   1204050  
  9260.000000   1205407   1207313   1209179   1210383   1210446  
  9250.000000   1209172   1206697   1203514   1200315   1197849  
  9240.000000   1196693   1197142   1199144   1202289   1205880  
  9230.000000   1209025   1210880   1210823   1208673   1204674  
  9220.000000   1199482   1193974   1189092   1185580   1183840  
  9210.000000   1183879   1185388   1187926   1191023   1194350  
  9200.000000   1197688   1200948   1204048   1206867   1209249  
  9190.000000   1210977   1211931   1212017   1211306   1209895  
  9180.000000   1207978   1205748   1203410   1201213   1199407  
  9170.000000   1198333   1198245   1199355   1201613   1204815  
  9160.000000   1208527   1212263   1215540   1217995   1219450  
  9150.000000   1219826   1219157   1217408   1214582   1210664  
  9140.000000   1205783   1200211   1194386   1188904   1184375  
  9130.000000   1181358   1180161   1180885   1183361   1187246  
  9120.000000   1192013   1197020   1201577   1205035   1206916  
  9110.000000   1206981   1205354   1202511   1199254   1196430  
  9100.000000   1194738   1194499   1195621   1197585   1199606  
  9090.000000   1200903   1200931   1199532   1196870   1193420  
  9080.000000   1189788   1186597   1184326   1183278   1183586  
  9070.000000   1185168   1187730   1190779   1193715   1195921  
  9060.000000   1196906   1196438   1194657   1192038   1189277  
  9050.000000   1187067   1185921   1186016   1187172   1188970  
  9040.000000   1190911   1192616   1193889   1194761   1195370  
  9030.000000   1195875   1196327   1196636   1196610   1196043  
  9020.000000   1194840   1193053   1190898   1188684   1186737  
  9010.000000   1185301   1184479   1184226   1184387   1184742  
  9000.000000   1185055   1185134   1184860   1184230   1183343  
  8990.000000   1182406   1181691   1181483   1182008   1183333  
  8980.000000   1185341   1187710   1189994   1191712   1192488  
  8970.000000   1192146   1190787   1188740   1186496   1184548  
  8960.000000   1183293   1182892   1183265   1184126   1185088  
  8950.000000   1185813   1186067   1185849   1185316   1184814  
  8940.000000   1184707   1185312   1186776   1189019   1191759  
  8930.000000   1194498   1196684   1197760   1197369   1195378  
  8920.000000   1191964   1187562   1182803   1178407   1175027  
  8910.000000   1173156   1173008   1174553   1177493   1181377  
  8900.000000   1185627   1189685   1193065   1195416   1196572  
  8890.000000   1196536   1195542   1193902   1192011   1190160  
  8880.000000   1188567   1187276   1186217   1185278   1184399  
  8870.000000   1183660   1183255   1183474   1184567   1186641  
  8860.000000   1189559   1192950   1196315   1199160   1201159  
  8850.000000   1202232   1202571   1202563   1202663   1203255  
  8840.000000   1204536   1206478   1208854   1211309   1213464  
  8830.000000   1214983   1215659   1215417   1214353   1212670  
  8820.000000   1210658   1208621   1206838   1205523   1204797  
  8810.000000   1204710   1205266   1206479   1208373   1210982  
  8800.000000   1214272   1218107   1222208   1226172   1229575  
  8790.000000   1232055   1233485   1233974   1233879   1233656  
  8780.000000   1233726   1234342   1235520   1237091   1238776  
  8770.000000   1240350   1241695   1242855   1243945   1245082  
  8760.000000   1246271   1247401   1248279   1248714   1248630  
  8750.000000   1248084   1247281   1246475   1245894   1245660  
  8740.000000   1245773   1246172   1246786   1247607   1248685  
  8730.000000   1250104   1251906   1254040   1256353   1258616  
  8720.000000   1260625   1262243   1263471   1264383   1265110  
  8710.000000   1265731   1266264   1266657   1266857   1266879  
  8700.000000   1266855   1267032   1267688   1269044   1271146  
  8690.000000   1273847   1276807   1279614   1281888   1283405  
  8680.000000   1284159   1284318   1284179   1284029   1284102  
  8670.000000   1284479   1285133   1285923   1286698   1287333  
  8660.000000   1287784   1288095   1288375   1288811   1289578  
  8650.000000   1290870   1292789   1295387   1298607   1302299  
  8640.000000   1306225   1310081   1313572   1316390   1318299  
  8630.000000   1319116   1318808   1317436   1315211   1312448  
  8620.000000   1309584   1307103   1305469   1305037   1305984  
  8610.000000   1308276   1311653   1315710   1319961   1323971  
  8600.000000   1327420   1330190   1332374   1334225   1336088  
  8590.000000   1338280   1341016   1344327   1348051   1351866  
  8580.000000   1355372   1358194   1360066   1360916   1360876  
  8570.000000   1360233   1359327   1358456   1357801   1357400  
  8560.000000   1357155   1356939   1356652   1356325   1356086  
  8550.000000   1356172   1356810   1358163   1360226   1362836  
  8540.000000   1365703   1368471   1370818   1372511   1373476  
  8530.000000   1373778   1373610   1373231   1372928   1372946  
  8520.000000   1373447   1374476   1375954   1377694   1379432  
  8510.000000   1380915   1381949   1382478   1382583   1382464  
  8500.000000   1382379   1382550   1383117   1384068   1385290  
  8490.000000   1386584   1387766   1388707   1389382   1389875  
  8480.000000   1390350   1391001   1391994   1393432   1395328  
  8470.000000   1397612   1400143   1402744   1405250   1407536  
  8460.000000   1409546   1411277   1412779   1414101   1415283  
  8450.000000   1416314   1417155   1417763   1418133   1418339  
  8440.000000   1418518   1418877   1419599   1420832   1422581  
  8430.000000   1424755   1427140   1429509   1431631   1433357  
  8420.000000   1434613   1435400   1435760   1435745   1435403  
  8410.000000   1434773   1433896   1432824   1431616   1430341  
  8400.000000   1429054   1427816   1426675   1425694   1424937  
  8390.000000   1424473   1424351   1424560   1425021   1425579  
  8380.000000   1426058   1426301   1426243   1425930   1425521  
  8370.000000   1425244   1425321   1425898   1426996   1428524  
  8360.000000   1430308   1432152   1433870   1435319   1436391  
  8350.000000   1437008   1437104   1436636   1435610   1434104  
  8340.000000   1432285   1430380   1428625   1427210   1426210  
  8330.000000   1425595   1425219   1424933   1424609   1424223  
  8320.000000   1423832   1423548   1423467   1423607   1423875  
  8310.000000   1424091   1424054   1423610   1422734   1421524  
  8300.000000   1420202   1419014   1418162   1417713   1417587  
  8290.000000   1417582   1417448   1416974   1416052   1414733  
  8280.000000   1413211   1411787   1410753   1410331   1410579  
  8270.000000   1411398   1412530   1413642   1414404   1414575  
  8260.000000   1414066   1412936   1411359   1409546   1407677  
  8250.000000   1405847   1404057   1402239   1400333   1398339  
  8240.000000   1396353   1394554   1393134   1392245   1391908  
  8230.000000   1392016   1392341   1392620   1392640   1392306  
  8220.000000   1391661   1390850   1390050   1389400   1388934  
  8210.000000   1388589   1388224   1387702   1386931   1385908  
  8200.000000   1384692   1383376   1382023   1380646   1379190  
  8190.000000   1377568   1375689   1373501   1371012   1368287  
  8180.000000   1365432   1362576   1359847   1357370   1355252  
  8170.000000   1353583   1352407   1351710   1351402   1351324  
  8160.000000   1351284   1351095   1350637   1349865   1348831  
  8150.000000   1347623   1346351   1345073   1343809   1342530  
  8140.000000   1341209   1339851   1338509   1337274   1336230  
  8130.000000   1335416   1334793   1334255   1333654   1332857  
  8120.000000   1331788   1330452   1328937   1327370   1325893  
  8110.000000   1324604   1323553   1322733   1322096   1321576  
  8100.000000   1321104   1320627   1320106   1319530   1318905  
  8090.000000   1318260   1317627   1317039   1316513   1316037  
  8080.000000   1315586   1315105   1314548   1313871   1313053  
  8070.000000   1312088   1310989   1309782   1308504   1307214  
  8060.000000   1305991   1304941   1304170   1303764   1303745  
  8050.000000   1304055   1304547   1305017   1305252   1305090  
  8040.000000   1304469   1303439   1302150   1300794   1299558  
  8030.000000   1298562   1297836   1297328   1296930   1296530  
  8020.000000   1296043   1295448   1294774   1294093   1293476  
  8010.000000   1292969   1292560   1292190   1291760   1291172  
  8000.000000   1290365   1289335   1288148   1286909   1285730  
  7990.000000   1284683   1283783   1282973   1282170   1281289  
  7980.000000   1280302   1279238   1278189   1277267   1276566  
  7970.000000   1276123   1275920   1275895   1275987   1276156  
  7960.000000   1276401   1276745   1277209   1277790   1278446  
  7950.000000   1279110   1279717   1280213   1280583   1280819  
  7940.000000   1280922   1280854   1280567   1280002   1279140  
  7930.000000   1278019   1276757   1275521   1274482   1273778  
  7920.000000   1273466   1273537   1273934   1274593   1275466  
  7910.000000   1276526   1277738   1279037   1280304   1281389  
  7900.000000   1282150   1282499   1282455   1282124   1281680  
  7890.000000   1281286   1281042   1280958   1280956   1280930  
  7880.000000   1280790   1280518   1280160   1279814   1279565  
  7870.000000   1279459   1279468   1279523   1279538   1279460  
  7860.000000   1279289   1279071   1278880   1278780   1278804  
  7850.000000   1278951   1279195   1279507   1279866   1280267  
  7840.000000   1280707   1281173   1281629   1282020   1282285  
  7830.000000   1282372   1282256   1281950   1281493   1280949  
  7820.000000   1280381   1279851   1279398   1279048   1278798  
  7810.000000   1278637   1278532   1278452   1278361   1278241  
  7800.000000   1278080   1277880   1277641   1277362   1277030  
  7790.000000   1276634   1276169   1275649   1275110   1274594  
  7780.000000   1274142   1273764   1273437   1273109   1272723  
  7770.000000   1272244   1271686   1271113   1270625   1270317  
  7760.000000   1270245   1270402   1270713   1271066   1271346  
  7750.000000   1271480   1271460   1271334   1271190   1271105  
  7740.000000   1271124   1271223   1271325   1271314   1271085  
  7730.000000   1270572   1269782   1268805   1267789   1266915  
  7720.000000   1266330   1266132   1266318   1266812   1267474  
  7710.000000   1268158   1268743   1269165   1269408   1269489  
  7700.000000   1269422   1269193   1268764   1268078   1267113  
  7690.000000   1265894   1264522   1263143   1261912   1260945  
  7680.000000   1260274   1259858   1259596   1259395   1259198  
  7670.000000   1259019   1258923   1258997   1259299   1259818  
  7660.000000   1260484   1261164   1261730   1262072   1262154  
  7650.000000   1261993   1261660   1261240   1260823   1260477  
  7640.000000   1260255   1260194   1260317   1260636   1261133  
  7630.000000   1261770   1262477   1263171   1263772   1264218  
  7620.000000   1264484   1264571   1264515   1264351   1264118  
  7610.000000   1263835   1263514   1263162   1262794   1262449  
  7600.000000   1262182   1262067   1262171   1262540   1263173  
  7590.000000   1264011   1264943   1265817   1266491   1266859  
  7580.000000   1266900   1266672   1266314   1265991   1265858  
  7570.000000   1266003   1266438   1267097   1267868   1268644  
  7560.000000   1269352   1269975   1270542   1271103   1271707  
  7550.000000   1272376   1273103   1273854   1274588   1275266  
  7540.000000   1275857   1276343   1276714   1276973   1277139  
  7530.000000   1277252   1277371   1277561   1277877   1278336  
  7520.000000   1278921   1279569   1280207   1280771   1281245  
  7510.000000   1281663   1282103   1282656   1283403   1284379  
  7500.000000   1285574   1286930   1288373   1289817   1291200  
  7490.000000   1292473   1293618   1294625   1295518   1296332  
  7480.000000   1297133   1297990   1298973   1300124   1301452  
  7470.000000   1302918   1304455   1305986   1307452   1308833  
  7460.000000   1310153   1311467   1312844   1314333   1315955  
  7450.000000   1317686   1319480   1321272   1323009   1324648  
  7440.000000   1326181   1327616   1328983   1330320   1331665  
  7430.000000   1333058   1334530   1336109   1337809   1339635  
  7420.000000   1341580   1343628   1345750   1347910   1350068  
  7410.000000   1352180   1354208   1356114   1357877   1359482  
  7400.000000   1360934   1362252   1363474   1364655   1365867  
  7390.000000   1367190   1368694   1370431   1372411   1374607  
  7380.000000   1376946   1379342   1381705   1383984   1386161  
  7370.000000   1388248   1390269   1392225   1394093   1395813  
  7360.000000   1397329   1398608   1399674   1400611   1401536  
  7350.000000   1402571   1403792   1405212   1406778   1408410  
  7340.000000   1410032   1411622   1413200   1414819   1416520  
  7330.000000   1418304   1420126   1421904   1423566   1425067  
  7320.000000   1426423   1427682   1428910   1430146   1431399  
  7310.000000   1432646   1433864   1435061   1436284   1437613  
  7300.000000   1439121   1440846   1442754   1444759   1446741  
  7290.000000   1448600   1450282   1451799   1453205   1454561  
  7280.000000   1455911   1457254   1458569   1459823   1461004  
  7270.000000   1462126   1463226   1464340   1465488   1466667  
  7260.000000   1467861   1469056   1470267   1471530   1472896  
  7250.000000   1474399   1476047   1477803   1479611   1481410  
  7240.000000   1483183   1484938   1486731   1488609   1490609  
  7230.000000   1492713   1494884   1497058   1499204   1501306  
  7220.000000   1503402   1505534   1507762   1510114   1512618  
  7210.000000   1515272   1518079   1521029   1524113   1527298  
  7200.000000   1530552   1533824   1537090   1540346   1543634  
  7190.000000   1547010   1550531   1554206   1557992   1561776  
  7180.000000   1565431   1568849   1572000   1574933   1577776  
  7170.000000   1580666   1583721   1586977   1590403   1593906  
  7160.000000   1597398   1600816   1604168   1607502   1610902  
  7150.000000   1614440   1618171   1622110   1626257   1630585  
  7140.000000   1635076   1639687   1644382   1649092   1653767  
  7130.000000   1658344   1662810   1667166   1671475   1675794  
  7120.000000   1680198   1684721   1689385   1694180   1699108  
  7110.000000   1704173   1709407   1714843   1720510   1726394  
  7100.000000   1732452   1738597   1744741   1750795   1756714  
  7090.000000   1762483   1768132   1773698   1779237   1784780  
  7080.000000   1790351   1795941   1801528   1807067   1812517  
  7070.000000   1817846   1823052   1828165   1833247   1838373  
  7060.000000   1843601   1848963   1854441   1859991   1865557  
  7050.000000   1871105   1876630   1882162   1887737   1893370  
  7040.000000   1899031   1904649   1910131   1915401   1920432  
  7030.000000   1925258   1929960   1934635   1939354   1944145  
  7020.000000   1948985   1953829   1958625   1963355   1968015  
  7010.000000   1972623   1977179   1981674   1986071   1990341  
  7000.000000   1994468   1998480   2002419   2006350   2010308  
  6990.000000   2014310   2018327   2022332   2026286   2030187  
  6980.000000   2034033   2037837   2041577   2045211   2048662  
  6970.000000   2051867   2054782   2057434   2059888   2062258  
  6960.000000   2064635   2067089   2069620   2072195   2074742  
  6950.000000   2077212   2079562   2081802   2083946   2086033  
  6940.000000   2088081   2090112   2092122   2094115   2096083  
  6930.000000   2098021   2099914   2101743   2103481   2105113  
  6920.000000   2106629   2108040   2109362   2110628   2111857  
  6910.000000   2113072   2114282   2115505   2116748   2118024  
  6900.000000   2119319   2120607   2121837   2122960   2123941  
  6890.000000   2124789   2125557   2126335   2127211   2128236  
  6880.000000   2129397   2130624   2131812   2132873   2133765  
  6870.000000   2134520   2135220   2135971   2136843   2137855  
  6860.000000   2138963   2140088   2141149   2142094   2142911  
  6850.000000   2143621   2144250   2144817   2145319   2145752  
  6840.000000   2146119   2146456   2146819   2147278   2147878  
  6830.000000   2148628   2149481   2150365   2151190   2151900  
  6820.000000   2152469   2152918   2153285   2153616   2153939  
  6810.000000   2154258   2154561   2154823   2155020   2155128  
  6800.000000   2155130   2155017   2154790   2154473   2154108  
  6790.000000   2153761   2153495   2153368   2153401   2153584  
  6780.000000   2153873   2154217   2154570   2154909   2155228  
  6770.000000   2155527   2155798   2156007   2156106   2156041  
  6760.000000   2155781   2155330   2154741   2154101   2153513  
  6750.000000   2153077   2152863   2152904   2153192   2153683  
  6740.000000   2154307   2154977   2155607   2156127   2156498  
  6730.000000   2156723   2156848   2156941   2157075   2157302  
  6720.000000   2157640   2158072   2158561   2159078   2159604  
  6710.000000   2160145   2160702   2161268   2161796   2162216  
  6700.000000   2162445   2162426   2162149   2161665   2161069  
  6690.000000   2160475   2159971   2159606   2159369   2159224  
  6680.000000   2159106   2158975   2158792   2158548   2158230  
  6670.000000   2157830   2157331   2156729   2156026   2155248  
  6660.000000   2154426   2153591   2152754   2151907   2151023  
  6650.000000   2150079   2149066   2148006   2146933   2145893  
  6640.000000   2144908   2143985   2143099   2142228   2141348  
  6630.000000   2140459   2139566   2138676   2137777   2136836  
  6620.000000   2135805   2134641   2133329   2131891   2130382  
  6610.000000   2128875   2127429   2126085   2124844   2123695  
  6600.000000   2122615   2121596   2120634   2119729   2118866  
  6590.000000   2118009   2117103   2116088   2114920   2113584  
  6580.000000   2112096   2110496   2108835   2107157   2105492  
  6570.000000   2103866   2102294   2100795   2099379   2098052  
  6560.000000   2096796   2095579   2094360   2093102   2091792  
  6550.000000   2090441   2089078   2087738   2086442   2085190  
  6540.000000   2083967   2082751   2081538   2080335   2079168  
  6530.000000   2078052   2076989   2075949   2074887   2073755  
  6520.000000   2072532   2071232   2069903   2068612   2067413  
  6510.000000   2066334   2065363   2064461   2063577   2062669  
  6500.000000   2061707   2060683   2059591   2058431   2057198  
  6490.000000   2055891   2054520   2053110   2051694   2050308  
  6480.000000   2048969   2047676   2046402   2045120   2043805  
  6470.000000   2042453   2041080   2039712   2038371   2037064  
  6460.000000   2035779   2034497   2033201   2031890   2030582  
  6450.000000   2029301   2028075   2026916   2025822   2024774  
  6440.000000   2023756   2022747   2021741   2020731   2019718  
  6430.000000   2018696   2017673   2016658   2015681   2014779  
  6420.000000   2013995   2013351   2012848   2012446   2012095  
  6410.000000   2011735   2011336   2010893   2010443   2010031  
  6400.000000   2009705   2009483   2009361   2009305   2009279  
  6390.000000   2009252   2009212   2009158   2009096   2009027  
  6380.000000   2008943   2008829   2008672   2008464   2008210  
  6370.000000   2007923   2007619   2007309   2006996   2006684  
  6360.000000   2006373   2006071   2005780   2005503   2005226  
  6350.000000   2004929   2004581   2004166   2003678   2003137  
  6340.000000   2002574   2002022   2001495   2000991   2000481  
  6330.000000   1999937   1999331   1998664   1997946   1997207  
  6320.000000   1996467   1995734   1994992   1994223   1993401  
  6310.000000   1992522   1991592   1990631   1989653   1988664  
  6300.000000   1987649   1986589   1985464   1984279   1983053  
  6290.000000   1981828   1980644   1979538   1978518   1977573  
  6280.000000   1976668   1975760   1974806   1973768   1972624  
  6270.000000   1971364   1969995   1968538   1967028   1965506  
  6260.000000   1964009   1962566   1961181   1959849   1958547  
  6250.000000   1957257   1955964   1954672   1953387   1952116  
  6240.000000   1950853   1949579   1948265   1946886   1945434  
  6230.000000   1943920   1942379   1940852   1939376   1937970  
  6220.000000   1936634   1935357   1934124   1932926   1931769  
  6210.000000   1930659   1929603   1928594   1927611   1926621  
  6200.000000   1925594   1924509   1923368   1922186   1920995  
  6190.000000   1919823   1918695   1917622   1916603   1915625  
  6180.000000   1914674   1913732   1912783   1911820   1910844  
  6170.000000   1909865   1908902   1907978   1907112   1906312  
  6160.000000   1905571   1904866   1904166   1903439   1902661  
  6150.000000   1901824   1900927   1899981   1898999   1897991  
  6140.000000   1896969   1895943   1894930   1893944   1892998  
  6130.000000   1892094   1891223   1890361   1889486   1888577  
  6120.000000   1887632   1886666   1885709   1884791   1883937  
  6110.000000   1883154   1882436   1881759   1881108   1880465  
  6100.000000   1879834   1879222   1878652   1878137   1877698  
  6090.000000   1877339   1877061   1876853   1876703   1876586  
  6080.000000   1876486   1876384   1876279   1876176   1876102  
  6070.000000   1876078   1876136   1876283   1876523   1876833  
  6060.000000   1877197   1877590   1878010   1878456   1878953  
  6050.000000   1879512   1880156   1880887   1881714   1882632  
  6040.000000   1883653   1884778   1886026   1887397   1888903  
  6030.000000   1890533   1892284   1894138   1896090   1898120  
  6020.000000   1900221   1902358   1904513   1906644   1908740  
  6010.000000   1910783   1912800   1914816   1916890   1919059  
  6000.000000   1921365   1923813   1926412   1929144   1932008  
  5990.000000   1934989   1938101   1941336   1944710   1948210  
  5980.000000   1951844   1955601   1959491   1963512   1967678  
  5970.000000   1971981   1976419   1980959   1985580   1990237  
  5960.000000   1994910   1999569   2004210   2008819   2013409  
  5950.000000   2017979   2022558   2027170   2031862   2036674  
  5940.000000   2041642   2046782   2052083   2057514   2063025  
  5930.000000   2068572   2074109   2079610   2085041   2090370  
  5920.000000   2095550   2100527   2105249   2109688   2113846  
  5910.000000   2117763   2121499   2125123   2128677   2132192  
  5900.000000   2135657   2139071   2142420   2145732   2149028  
  5890.000000   2152362   2155751   2159210   2162707   2166207  
  5880.000000   2169648   2172986   2176174   2179181   2181974  
  5870.000000   2184532   2186837   2188895   2190740   2192439  
  5860.000000   2194079   2195751   2197520   2199423   2201451  
  5850.000000   2203576   2205753   2207950   2210147   2212341  
  5840.000000   2214534   2216722   2218898   2221051   2223178  
  5830.000000   2225286   2227399   2229535   2231712   2233923  
  5820.000000   2236147   2238350   2240503   2242597   2244639  
  5810.000000   2246659   2248684   2250744   2252842   2254993  
  5800.000000   2257182   2259431   2261734   2264118   2266556  
  5790.000000   2269034   2271461   2273757   2275781   2277425  
  5780.000000   2278560   2279112   2279012   2278262   2276884  
  5770.000000   2274971   2272634   2270032   2267299   2264574  
  5760.000000   2261921   2259389   2256956   2254614   2252336  
  5750.000000   2250145   2248065   2246148   2244427   2242913  
  5740.000000   2241585   2240393   2239281   2238190   2237084  
  5730.000000   2235936   2234745   2233507   2232236   2230944  
  5720.000000   2229658   2228400   2227202   2226073   2225014  
  5710.000000   2223999   2222995   2221970   2220911   2219826  
  5700.000000   2218744   2217700   2216716   2215804   2214943  
  5690.000000   2214116   2213296   2212482   2211672   2210884  
  5680.000000   2210111   2209341   2208523   2207604   2206511  
  5670.000000   2205193   2203601   2201717   2199529   2197052  
  5660.000000   2194309   2191349   2188235   2185054   2181881  
  5650.000000   2178790   2175812   2172959   2170209   2167540  
  5640.000000   2164935   2162401   2159961   2157640   2155454  
  5630.000000   2153391   2151427   2149515   2147629   2145751  
  5620.000000   2143899   2142098   2140386   2138781   2137295  
  5610.000000   2135910   2134617   2133393   2132234   2131129  
  5600.000000   2130077   2129065   2128084   2127120   2126172  
  5590.000000   2125243   2124350   2123504   2122707   2121945  
  5580.000000   2121190   2120408   2119576   2118685   2117744  
  5570.000000   2116773   2115791   2114808   2113821   2112822  
  5560.000000   2111802   2110761   2109705   2108649   2107597  
  5550.000000   2106549   2105490   2104406   2103282   2102119  
  5540.000000   2100929   2099733   2098551   2097397   2096274  
  5530.000000   2095183   2094122   2093096   2092107   2091160  
  5520.000000   2090245   2089343   2088427   2087472   2086464  
  5510.000000   2085404   2084303   2083180   2082043   2080890  
  5500.000000   2079707   2078483   2077210   2075902   2074575  
  5490.000000   2073253   2071938   2070621   2069269   2067852  
  5480.000000   2066349   2064765   2063129   2061485   2059875  
  5470.000000   2058328   2056844   2055405   2053979   2052539  
  5460.000000   2051062   2049540   2047969   2046351   2044690  
  5450.000000   2042996   2041282   2039569   2037882   2036235  
  5440.000000   2034638   2033084   2031567   2030079   2028627  
  5430.000000   2027224   2025888   2024624   2023425   2022262  
  5420.000000   2021111   2019953   2018807   2017706   2016718  
  5410.000000   2015888   2015250   2014781   2014449   2014186  
  5400.000000   2013959   2013740   2013550   2013409   2013364  
  5390.000000   2013433   2013641   2013982   2014476   2015120  
  5380.000000   2015948   2016958   2018169   2019543   2021067  
  5370.000000   2022684   2024388   2026152   2028017   2029985  
  5360.000000   2032120   2034423   2036953   2039706   2042754  
  5350.000000   2046106   2049844   2053969   2058538   2063502  
  5340.000000   2068877   2074590   2080674   2087083   2093891  
  5330.000000   2101072   2108703   2116734   2125222   2134108  
  5320.000000   2143470   2153284   2163676   2174646   2186329  
  5310.000000   2198700   2211854   2225728   2240387   2255768  
  5300.000000   2271948   2288881   2306661   2325247   2344717  
  5290.000000   2364997   2386111   2407925   2430394   2453354  
  5280.000000   2476762   2500521   2524683   2549262   2574383  
  5270.000000   2600075   2626371   2653165   2680312   2707608  
  5260.000000   2734888   2762058   2789107   2816099   2843079  
  5250.000000   2870072   2896971   2923644   2949853   2975468  
  5240.000000   3000345   3024541   3048086   3071155   3093791  
  5230.000000   3116093   3137961   3159348   3180047   3199996  
  5220.000000   3219056   3237299   3254729   3271530   3287752  
  5210.000000   3303549   3318873   3333749   3348011   3361624  
  5200.000000   3374436   3386495   3397755   3408357   3418298  
  5190.000000   3427697   3436501   3444763   3452392   3459443  
  5180.000000   3465857   3471721   3476997   3481754   3485915  
  5170.000000   3489504   3492426   3494725   3496364   3497449  
  5160.000000   3497999   3498133   3497852   3497231   3496229  
  5150.000000   3494892   3493176   3491131   3488724   3486001  
  5140.000000   3482929   3479550   3475846   3471882   3467675  
  5130.000000   3463301   3458771   3454122   3449320   3444359  
  5120.000000   3439195   3433841   3428307   3422655   3416929  
  5110.000000   3411190   3405457   3399750   3394056   3388381  
  5100.000000   3382722   3377099   3371519   3365990   3360497  
  5090.000000   3355019   3349529   3344017   3338487   3332971  
  5080.000000   3327501   3322113   3316816   3311599   3306421  
  5070.000000   3301235   3295987   3290642   3285173   3279580  
  5060.000000   3273862   3268042   3262133   3256163   3250147  
  5050.000000   3244105   3238037   3231944   3225808   3219616  
  5040.000000   3213353   3207021   3200629   3194201   3187760  
  5030.000000   3181324   3174904   3168501   3162113   3155741  
  5020.000000   3149399   3143104   3136887   3130767   3124771  
  5010.000000   3118901   3113166   3107555   3102073   3096710  
  5000.000000   3091477   3086363   3081386   3076533   3071829  
  4990.000000   3067271   3062895   3058709   3054751   3051017  
  4980.000000   3047527   3044247   3041179   3038278   3035556  
  4970.000000   3032987   3030612   3028429   3026495   3024809  
  4960.000000   3023425   3022330   3021570   3021124   3021034  
  4950.000000   3021272   3021874   3022802   3024087   3025689  
  4940.000000   3027648   3029932   3032596   3035613   3039039  
  4930.000000   3042842   3047066   3051672   3056704   3062127  
  4920.000000   3067983   3074240   3080928   3088002   3095475  
  4910.000000   3103294   3111466   3119949   3128753   3137845  
  4900.000000   3147223   3156845   3166683   3176684   3186802  
  4890.000000   3196989   3207190   3217365   3227438   3237357  
  4880.000000   3247017   3256357   3265257   3273670   3281492  
  4870.000000   3288709   3295242   3301108   3306249   3310704  
  4860.000000   3314432   3317486   3319834   3321539   3322579  
  4850.000000   3323026   3322881   3322243   3321143   3319700  
  4840.000000   3317964   3316041   3313967   3311815   3309598  
  4830.000000   3307366   3305132   3302943   3300824   3298815  
  4820.000000   3296939   3295213   3293642   3292219   3290940  
  4810.000000   3289790   3288771   3287869   3287093   3286429  
  4800.000000   3285889   3285462   3285163   3284985   3284949  
  4790.000000   3285047   3285291   3285664   3286166   3286775  
  4780.000000   3287491   3288296   3289195   3290173   3291229  
  4770.000000   3292342   3293502   3294684   3295883   3297087  
  4760.000000   3298302   3299525   3300760   3301995   3303221  
  4750.000000   3304422   3305590   3306723   3307835   3308943  
  4740.000000   3310069   3311227   3312425   3313657   3314915  
  4730.000000   3316182   3317449   3318703   3319944   3321162  
  4720.000000   3322364   3323543   3324717   3325891   3327097  
  4710.000000   3328352   3329694   3331136   3332712   3334426  
  4700.000000   3336311   3338383   3340686   3343246   3346110  
  4690.000000   3349293   3352812   3356644   3360768   3365126  
  4680.000000   3369674   3374338   3379068   3383787   3388448  
  4670.000000   3392981   3397358   3401544   3405560   3409426  
  4660.000000   3413210   3416976   3420807   3424764   3428905  
  4650.000000   3433259   3437839   3442640   3447639   3452803  
  4640.000000   3458089   3463456   3468855   3474257   3479625  
  4630.000000   3484944   3490186   3495340   3500370   3505252  
  4620.000000   3509928   3514359   3518479   3522254   3525629  
  4610.000000   3528604   3531156   3533328   3535135   3536657  
  4600.000000   3537927   3539033   3539997   3540882   3541671  
  4590.000000   3542378   3542946   3543349   3543512   3543408  
  4580.000000   3542980   3542233   3541156   3539795   3538180  
  4570.000000   3536379   3534438   3532418   3530350   3528273  
  4560.000000   3526193   3524125   3522060   3520005   3517946  
  4550.000000   3515893   3513837   3511785   3509734   3507687  
  4540.000000   3505641   3503596   3501551   3499504   3497454  
  4530.000000   3495391   3493309   3491187   3489020   3486786  
  4520.000000   3484497   3482151   3479792   3477441   3475171  
  4510.000000   3473012   3471050   3469312   3467882   3466775  
  4500.000000   3466069   3465762   3465923   3466532   3467658  
  4490.000000   3469278   3471476   3474236   3477660   3481734  
  4480.000000   3486552   3492079   3498385   3505408   3513195  
  4470.000000   3521670   3530865   3540697   3551185   3562237  
  4460.000000   3573862   3585970   3598569   3611583   3625022  
  4450.000000   3638816   3652960   3667377   3682043   3696889  
  4440.000000   3711887   3726999   3742209   3757503   3772856  
  4430.000000   3788245   3803605   3818886   3833989   3848859  
  4420.000000   3863398   3877574   3891305   3904579   3917313  
  4410.000000   3929487   3941004   3951837   3961905   3971220  
  4400.000000   3979763   3987625   3994861   4001624   4008010  
  4390.000000   4014182   4020227   4026274   4032369   4038583  
  4380.000000   4044907   4051359   4057892   4064502   4071152  
  4370.000000   4077854   4084600   4091417   4098295   4105237  
  4360.000000   4112190   4119129   4125969   4132695   4139220  
  4350.000000   4145564   4151637   4157478   4162989   4168221  
  4340.000000   4173082   4177610   4181674   4185188   4187841  
  4330.000000   4189304   4189075   4186732   4181905   4174522  
  4320.000000   4164771   4153201   4140549   4127683   4115368  
  4310.000000   4104211   4094529   4086420   4079770   4074385  
  4300.000000   4070052   4066592   4063904   4061897   4060553  
  4290.000000   4059801   4059640   4059999   4060898   4062296  
  4280.000000   4064219   4066629   4069495   4072734   4076242  
  4270.000000   4079900   4083567   4087101   4090311   4092984  
  4260.000000   4094844   4095611   4095010   4092873   4089145  
  4250.000000   4083971   4077621   4070519   4063093   4055788  
  4240.000000   4048906   4042676   4037140   4032284   4027971  
  4230.000000   4024074   4020432   4016926   4013460   4009970  
  4220.000000   4006445   4002875   3999326   3995838   3992524  
  4210.000000   3989446   3986712   3984357   3982431   3980909  
  4200.000000   3979777   3978968   3978448   3978152   3978073  
  4190.000000   3978172   3978466   3978922   3979554   3980308  
  4180.000000   3981182   3982116   3983125   3984180   3985348  
  4170.000000   3986655   3988208   3990055   3992301   3994969  
  4160.000000   3998123   4001744   4005856   4010407   4015403  
  4150.000000   4020782   4026551   4032652   4039106   4045872  
  4140.000000   4052991   4060430   4068235   4076360   4084829  
  4130.000000   4093572   4102598   4111841   4121330   4131045  
  4120.000000   4141068   4151431   4162245   4173558   4185462  
  4110.000000   4197972   4211124   4224869   4239175   4253933  
  4100.000000   4269058   4284423   4299942   4315528   4331144  
  4090.000000   4346770   4362409   4378071   4393751   4409448  
  4080.000000   4425122   4440763   4456312   4471760   4487033  
  4070.000000   4502109   4516878   4531297   4545237   4558665  
  4060.000000   4571473   4583668   4595169   4606010   4616125  
  4050.000000   4625578   4634336   4642508   4650096   4657222  
  4040.000000   4663859   4670073   4675769   4680963   4685553  
  4030.000000   4689585   4693017   4695945   4698370   4700377  
  4020.000000   4701932   4703105   4703898   4704377   4704507  
  4010.000000   4704373   4704010   4703376   4702240   4700593  
  4000.000000   4698682  
##END= 
