##TITLE= Sample 018 By ssteindl date Montag, November 19 2018
##JCAMP-DX= 4.24
##DATA TYPE= INFRARED SPECTRUM
##ORIGIN= Exported PE Spectrum Data File
##OWNER= Sandra Steindl
##DATE= 18/11/19
##TIME= 17:44:30.00
##SPECTROMETER/DATA SYSTEM= PERKIN-ELMER Frontier FT-IR/NIR IR
##INSTRUMENT PARAMETERS=
  APODIZATION=stark
  DETECTOR=INGAAS
##RESOLUTION= 16.000000
##DELTAX= -2.000000
##XUNITS= 1/CM
##YUNITS= A
##XFACTOR= 1.00
##YFACTOR= 0.00000011920928955078
##FIRSTX= 10000.00
##LASTX= 4000.00
##NPOINTS= 3001
##FIRSTY= 0.215913
##MAXY= 0.673567
##MINY= 0.186703
##XYDATA= (X++(Y..Y))
 10000.000000   1811209   1807568   1805219   1805663   1808578  
  9990.000000   1812263   1815169   1816546   1816204   1814573  
  9980.000000   1812771   1812053   1813143   1815893   1819543  
  9970.000000   1822955   1825016   1824966   1822548   1818020  
  9960.000000   1811994   1805383   1799187   1794432   1791936  
  9950.000000   1792097   1794731   1798935   1803321   1806273  
  9940.000000   1806465   1803242   1796850   1788384   1779503  
  9930.000000   1771966   1767266   1766272   1769163   1775418  
  9920.000000   1783936   1793264   1801776   1808069   1811184  
  9910.000000   1810976   1808133   1804066   1800460   1798694  
  9900.000000   1799372   1802060   1805469   1807921   1807931  
  9890.000000   1804776   1798616   1790452   1781635   1773440  
  9880.000000   1766709   1761704   1758287   1756036   1754498  
  9870.000000   1753207   1751715   1749652   1746780   1743260  
  9860.000000   1739689   1737141   1736857   1739780   1746174  
  9850.000000   1755234   1765341   1774311   1780190   1781705  
  9840.000000   1778701   1772051   1763357   1754451   1746965  
  9830.000000   1742074   1740395   1742043   1746630   1753351  
  9820.000000   1760959   1767996   1772951   1774745   1772974  
  9810.000000   1768185   1761703   1755237   1750361   1747915  
  9800.000000   1747930   1749575   1751706   1753171   1753211  
  9790.000000   1751551   1748279   1743782   1738539   1733240  
  9780.000000   1728727   1726061   1726289   1730119   1737550  
  9770.000000   1747599   1758451   1767826   1773715   1774936  
  9760.000000   1771538   1764667   1756155   1747877   1741237  
  9750.000000   1736921   1734973   1735080   1736836   1739920  
  9740.000000   1743981   1748565   1752881   1756007   1757003  
  9730.000000   1755400   1751382   1745867   1740276   1736020  
  9720.000000   1734113   1734745   1737307   1740548   1743015  
  9710.000000   1743470   1741251   1736409   1729650   1722120  
  9700.000000   1715092   1709712   1706732   1706420   1708511  
  9690.000000   1712326   1716964   1721564   1725493   1728475  
  9680.000000   1730505   1731742   1732296   1732135   1731115  
  9670.000000   1729062   1726009   1722228   1718283   1714812  
  9660.000000   1712305   1710897   1710254   1709730   1708574  
  9650.000000   1706282   1702788   1698518   1694238   1690759  
  9640.000000   1688680   1688190   1689081   1690840   1692885  
  9630.000000   1694706   1696047   1696862   1697332   1697697  
  9620.000000   1698213   1699027   1700174   1701555   1702983  
  9610.000000   1704253   1705199   1705799   1706155   1706522  
  9600.000000   1707172   1708332   1710055   1712180   1714333  
  9590.000000   1715996   1716609   1715720   1713104   1708876  
  9580.000000   1703516   1697826   1692771   1689261   1687891  
  9570.000000   1688749   1691325   1694618   1697412   1698657  
  9560.000000   1697846   1695188   1691561   1688192   1686200  
  9550.000000   1686221   1688158   1691337   1694753   1697580  
  9540.000000   1699368   1700230   1700581   1700911   1701457  
  9530.000000   1702059   1702229   1701298   1698719   1694173  
  9520.000000   1687682   1679522   1670184   1660329   1650791  
  9510.000000   1642550   1636588   1633688   1634110   1637422  
  9500.000000   1642471   1647671   1651497   1652981   1652101  
  9490.000000   1649709   1647239   1646026   1646863   1649628  
  9480.000000   1653528   1657390   1660278   1661756   1662038  
  9470.000000   1661757   1661551   1661807   1662395   1662963  
  9460.000000   1663110   1662788   1662328   1662299   1663205  
  9450.000000   1665134   1667654   1669874   1670745   1669401  
  9440.000000   1665446   1659105   1651159   1642784   1635229  
  9430.000000   1629627   1626738   1626909   1629943   1635159  
  9420.000000   1641416   1647326   1651548   1653108   1651698  
  9410.000000   1647706   1642116   1636131   1630864   1626988  
  9400.000000   1624695   1623751   1623735   1624267   1625121  
  9390.000000   1626224   1627508   1628804   1629802   1630125  
  9380.000000   1629512   1627904   1625556   1622881   1620392  
  9370.000000   1618485   1617401   1617223   1617919   1619457  
  9360.000000   1621756   1624720   1628134   1631671   1634909  
  9350.000000   1637421   1638898   1639217   1638468   1636864  
  9340.000000   1634674   1632121   1629395   1626688   1624239  
  9330.000000   1622363   1621319   1621250   1622016   1623253  
  9320.000000   1624428   1625066   1624886   1623930   1622496  
  9310.000000   1620982   1619683   1618670   1617802   1616836  
  9300.000000   1615598   1614097   1612542   1611219   1610335  
  9290.000000   1609883   1609642   1609284   1608509   1607190  
  9280.000000   1605380   1603306   1601248   1599452   1598067  
  9270.000000   1597154   1596759   1596915   1597646   1598786  
  9260.000000   1599990   1600674   1600287   1598437   1595158  
  9250.000000   1590921   1586571   1583090   1581295   1581609  
  9240.000000   1583974   1587975   1593030   1598593   1604206  
  9230.000000   1609491   1614068   1617527   1619488   1619712  
  9220.000000   1618286   1615674   1612678   1610162   1608744  
  9210.000000   1608602   1609392   1610490   1611178   1611038  
  9200.000000   1610002   1608416   1606745   1605387   1604438  
  9190.000000   1603689   1602742   1601194   1598846   1595731  
  9180.000000   1592143   1588450   1585022   1582107   1579847  
  9170.000000   1578301   1577476   1577338   1577794   1578690  
  9160.000000   1579858   1581150   1582538   1584091   1585957  
  9150.000000   1588215   1590776   1593315   1595357   1596445  
  9140.000000   1596366   1595268   1593677   1592306   1591803  
  9130.000000   1592442   1594001   1595828   1597102   1597127  
  9120.000000   1595581   1592643   1588936   1585301   1582519  
  9110.000000   1581136   1581371   1583118   1585998   1589482  
  9100.000000   1593010   1596085   1598330   1599588   1599953  
  9090.000000   1599770   1599502   1599622   1600445   1602008  
  9080.000000   1604045   1606075   1607582   1608199   1607798  
  9070.000000   1606507   1604598   1602386   1600097   1597844  
  9060.000000   1595636   1593493   1591480   1589757   1588453  
  9050.000000   1587684   1587429   1587591   1587985   1588460  
  9040.000000   1588946   1589414   1589835   1590049   1589821  
  9030.000000   1588806   1586738   1583519   1579387   1574874  
  9020.000000   1570714   1567641   1566175   1566498   1568395  
  9010.000000   1571372   1574797   1578083   1580813   1582774  
  9000.000000   1583949   1584435   1584390   1583975   1583349  
  8990.000000   1582655   1582029   1581593   1581447   1581630  
  8980.000000   1582100   1582724   1583303   1583591   1583342  
  8970.000000   1582366   1580595   1578109   1575135   1572043  
  8960.000000   1569281   1567306   1566474   1566990   1568859  
  8950.000000   1571864   1575590   1579489   1582978   1585536  
  8940.000000   1586789   1586609   1585167   1582902   1580431  
  8930.000000   1578394   1577322   1577468   1578745   1580726  
  8920.000000   1582783   1584254   1584637   1583711   1581577  
  8910.000000   1578628   1575437   1572613   1570659   1569888  
  8900.000000   1570382   1572009   1574455   1577323   1580216  
  8890.000000   1582823   1584961   1586584   1587750   1588550  
  8880.000000   1589041   1589198   1588946   1588209   1587020  
  8870.000000   1585565   1584179   1583262   1583118   1583840  
  8860.000000   1585213   1586771   1587927   1588181   1587308  
  8850.000000   1585407   1582894   1580323   1578266   1577096  
  8840.000000   1576968   1577782   1579321   1581298   1583452  
  8830.000000   1585574   1587534   1589292   1590889   1592467  
  8820.000000   1594233   1596417   1599186   1602552   1606347  
  8810.000000   1610210   1613710   1616439   1618143   1618784  
  8800.000000   1618507   1617582   1616283   1614854   1613475  
  8790.000000   1612299   1611476   1611161   1611465   1612392  
  8780.000000   1613765   1615252   1616439   1616990   1616768  
  8770.000000   1615926   1614864   1614105   1614122   1615176  
  8760.000000   1617256   1620093   1623288   1626425   1629193  
  8750.000000   1631406   1633007   1634002   1634456   1634462  
  8740.000000   1634179   1633820   1633654   1633930   1634820  
  8730.000000   1636360   1638439   1640846   1643318   1645647  
  8720.000000   1647697   1649444   1650923   1652201   1653351  
  8710.000000   1654432   1655518   1656661   1657916   1659261  
  8700.000000   1660616   1661814   1662673   1663051   1662938  
  8690.000000   1662489   1661995   1661823   1662283   1663570  
  8680.000000   1665692   1668516   1671823   1675376   1678972  
  8670.000000   1682421   1685567   1688224   1690230   1691433  
  8660.000000   1691801   1691423   1690580   1689644   1689037  
  8650.000000   1689109   1690077   1692006   1694777   1698188  
  8640.000000   1701940   1705776   1709469   1712889   1716003  
  8630.000000   1718859   1721575   1724230   1726843   1729275  
  8620.000000   1731290   1732598   1733000   1732509   1731410  
  8610.000000   1730251   1729657   1730178   1732047   1735137  
  8600.000000   1738948   1742811   1746080   1748346   1749528  
  8590.000000   1749837   1749644   1749329   1749153   1749221  
  8580.000000   1749512   1749979   1750620   1751507   1752727  
  8570.000000   1754341   1756313   1758507   1760698   1762636  
  8560.000000   1764108   1764960   1765130   1764632   1763590  
  8550.000000   1762210   1760802   1759725   1759346   1759919  
  8540.000000   1761504   1763915   1766748   1769521   1771805  
  8530.000000   1773390   1774337   1774952   1775663   1776846  
  8520.000000   1778694   1781146   1783954   1786740   1789167  
  8510.000000   1790982   1792114   1792609   1792608   1792294  
  8500.000000   1791870   1791542   1791501   1791924   1792944  
  8490.000000   1794625   1796922   1799711   1802793   1805976  
  8480.000000   1809070   1811942   1814499   1816685   1818477  
  8470.000000   1819867   1820897   1821635   1822183   1822622  
  8460.000000   1822986   1823245   1823317   1823135   1822687  
  8450.000000   1822100   1821604   1821504   1822040   1823323  
  8440.000000   1825253   1827556   1829851   1831785   1833131  
  8430.000000   1833850   1834069   1834020   1833954   1834071  
  8420.000000   1834486   1835224   1836247   1837464   1838747  
  8410.000000   1839930   1840818   1841242   1841101   1840426  
  8400.000000   1839373   1838220   1837278   1836810   1836930  
  8390.000000   1837592   1838615   1839769   1840837   1841687  
  8380.000000   1842279   1842646   1842830   1842853   1842707  
  8370.000000   1842379   1841896   1841333   1840814   1840470  
  8360.000000   1840385   1840575   1840954   1841410   1841824  
  8350.000000   1842147   1842392   1842629   1842935   1843334  
  8340.000000   1843770   1844110   1844195   1843890   1843137  
  8330.000000   1841988   1840594   1839180   1837976   1837171  
  8320.000000   1836860   1837040   1837605   1838377   1839139  
  8310.000000   1839689   1839882   1839658   1839047   1838149  
  8300.000000   1837107   1836067   1835150   1834424   1833907  
  8290.000000   1833579   1833393   1833299   1833245   1833191  
  8280.000000   1833107   1832983   1832817   1832626   1832420  
  8270.000000   1832203   1831958   1831651   1831242   1830703  
  8260.000000   1830033   1829270   1828467   1827680   1826923  
  8250.000000   1826174   1825365   1824439   1823371   1822210  
  8240.000000   1821056   1820030   1819213   1818602   1818088  
  8230.000000   1817494   1816633   1815389   1813772   1811912  
  8220.000000   1810020   1808309   1806917   1805879   1805120  
  8210.000000   1804509   1803908   1803241   1802491   1801714  
  8200.000000   1800976   1800339   1799818   1799389   1798989  
  8190.000000   1798527   1797892   1796966   1795644   1793861  
  8180.000000   1791630   1789048   1786301   1783620   1781224  
  8170.000000   1779248   1777698   1776455   1775319   1774112  
  8160.000000   1772748   1771284   1769894   1768801   1768175  
  8150.000000   1768055   1768319   1768709   1768925   1768708  
  8140.000000   1767943   1766656   1765014   1763235   1761527  
  8130.000000   1760033   1758807   1757834   1757050   1756382  
  8120.000000   1755759   1755136   1754475   1753760   1752982  
  8110.000000   1752146   1751260   1750326   1749336   1748245  
  8100.000000   1747002   1745537   1743817   1741860   1739759  
  8090.000000   1737682   1735830   1734404   1733536   1733263  
  8080.000000   1733497   1734051   1734667   1735081   1735078  
  8070.000000   1734535   1733448   1731914   1730117   1728255  
  8060.000000   1726514   1725005   1723764   1722748   1721869  
  8050.000000   1721037   1720180   1719285   1718375   1717512  
  8040.000000   1716755   1716145   1715695   1715381   1715153  
  8030.000000   1714940   1714664   1714251   1713642   1712815  
  8020.000000   1711796   1710663   1709537   1708548   1707794  
  8010.000000   1707298   1706989   1706710   1706276   1705520  
  8000.000000   1704367   1702847   1701100   1699316   1697689  
  7990.000000   1696356   1695375   1694742   1694406   1694324  
  7980.000000   1694471   1694843   1695439   1696228   1697136  
  7970.000000   1698037   1698783   1699221   1699243   1698785  
  7960.000000   1697865   1696559   1695016   1693422   1691987  
  7950.000000   1690904   1690303   1690229   1690604   1691268  
  7940.000000   1692000   1692605   1692957   1693042   1692942  
  7930.000000   1692784   1692680   1692663   1692688   1692642  
  7920.000000   1692422   1691977   1691356   1690689   1690135  
  7910.000000   1689828   1689816   1690058   1690445   1690852  
  7900.000000   1691176   1691362   1691391   1691252   1690927  
  7890.000000   1690387   1689623   1688677   1687670   1686782  
  7880.000000   1686211   1686092   1686444   1687149   1687977  
  7870.000000   1688676   1689053   1689040   1688711   1688237  
  7860.000000   1687809   1687563   1687531   1687648   1687799  
  7850.000000   1687871   1687813   1687638   1687403   1687171  
  7840.000000   1686963   1686760   1686505   1686157   1685711  
  7830.000000   1685225   1684796   1684526   1684477   1684641  
  7820.000000   1684937   1685237   1685409   1685356   1685050  
  7810.000000   1684523   1683864   1683172   1682538   1682019  
  7800.000000   1681635   1681376   1681218   1681140   1681130  
  7790.000000   1681194   1681333   1681554   1681833   1682137  
  7780.000000   1682407   1682584   1682611   1682445   1682068  
  7770.000000   1681472   1680666   1679664   1678491   1677178  
  7760.000000   1675776   1674353   1672978   1671725   1670632  
  7750.000000   1669726   1668990   1668412   1667975   1667692  
  7740.000000   1667589   1667684   1667963   1668344   1668683  
  7730.000000   1668793   1668512   1667742   1666517   1664981  
  7720.000000   1663373   1661935   1660855   1660200   1659918  
  7710.000000   1659873   1659898   1659869   1659731   1659509  
  7700.000000   1659276   1659117   1659086   1659191   1659396  
  7690.000000   1659637   1659849   1659975   1659983   1659855  
  7680.000000   1659596   1659218   1658751   1658229   1657696  
  7670.000000   1657182   1656707   1656264   1655834   1655400  
  7660.000000   1654957   1654532   1654175   1653951   1653908  
  7650.000000   1654070   1654415   1654885   1655411   1655912  
  7640.000000   1656329   1656605   1656702   1656578   1656212  
  7630.000000   1655597   1654773   1653824   1652882   1652095  
  7620.000000   1651594   1651459   1651702   1652267   1653051  
  7610.000000   1653931   1654799   1655561   1656164   1656567  
  7600.000000   1656760   1656747   1656572   1656306   1656063  
  7590.000000   1655964   1656122   1656601   1657395   1658429  
  7580.000000   1659580   1660715   1661725   1662553   1663198  
  7570.000000   1663699   1664115   1664490   1664852   1665199  
  7560.000000   1665525   1665819   1666094   1666375   1666709  
  7550.000000   1667138   1667696   1668396   1669226   1670153  
  7540.000000   1671136   1672132   1673126   1674110   1675113  
  7530.000000   1676158   1677274   1678457   1679684   1680901  
  7520.000000   1682062   1683140   1684159   1685187   1686332  
  7510.000000   1687686   1689307   1691173   1693198   1695234  
  7500.000000   1697134   1698776   1700123   1701209   1702137  
  7490.000000   1703031   1704012   1705169   1706554   1708178  
  7480.000000   1710034   1712093   1714318   1716653   1719028  
  7470.000000   1721353   1723546   1725534   1727297   1728853  
  7460.000000   1730277   1731663   1733122   1734737   1736561  
  7450.000000   1738603   1740841   1743234   1745736   1748302  
  7440.000000   1750900   1753501   1756084   1758625   1761105  
  7430.000000   1763495   1765784   1767962   1770049   1772069  
  7420.000000   1774064   1776072   1778120   1780215   1782343  
  7410.000000   1784480   1786605   1788724   1790867   1793085  
  7400.000000   1795431   1797931   1800567   1803266   1805919  
  7390.000000   1808410   1810660   1812658   1814465   1816207  
  7380.000000   1818034   1820081   1822416   1825021   1827806  
  7370.000000   1830622   1833312   1835744   1837853   1839645  
  7360.000000   1841204   1842665   1844179   1845886   1847874  
  7350.000000   1850167   1852727   1855470   1858289   1861094  
  7340.000000   1863820   1866440   1868940   1871307   1873514  
  7330.000000   1875521   1877298   1878843   1880204   1881474  
  7320.000000   1882765   1884184   1885785   1887575   1889498  
  7310.000000   1891485   1893469   1895420   1897335   1899232  
  7300.000000   1901113   1902949   1904679   1906232   1907568  
  7290.000000   1908701   1909703   1910682   1911746   1912961  
  7280.000000   1914327   1915795   1917284   1918729   1920100  
  7270.000000   1921415   1922719   1924055   1925444   1926865  
  7260.000000   1928279   1929638   1930922   1932133   1933313  
  7250.000000   1934499   1935736   1937033   1938401   1939830  
  7240.000000   1941338   1942942   1944685   1946584   1948654  
  7230.000000   1950863   1953179   1955551   1957971   1960443  
  7220.000000   1963018   1965743   1968671   1971817   1975183  
  7210.000000   1978725   1982408   1986169   1989972   1993758  
  7200.000000   1997495   2001127   2004629   2007973   2011184  
  7190.000000   2014302   2017422   2020637   2024056   2027746  
  7180.000000   2031747   2036041   2040584   2045297   2050107  
  7170.000000   2054933   2059732   2064462   2069132   2073747  
  7160.000000   2078355   2082983   2087678   2092456   2097347  
  7150.000000   2102353   2107501   2112795   2118261   2123890  
  7140.000000   2129676   2135564   2141509   2147442   2153340  
  7130.000000   2159194   2165059   2170998   2177106   2183442  
  7120.000000   2190050   2196916   2204008   2211257   2218606  
  7110.000000   2225986   2233358   2240669   2247897   2255012  
  7100.000000   2262029   2268970   2275906   2282900   2290029  
  7090.000000   2297326   2304798   2312413   2320125   2327893  
  7080.000000   2335697   2343540   2351441   2359409   2367437  
  7070.000000   2375482   2383494   2391404   2399167   2406747  
  7060.000000   2414142   2421358   2428423   2435373   2442265  
  7050.000000   2449175   2456185   2463378   2470798   2478443  
  7040.000000   2486244   2494092   2501855   2509424   2516729  
  7030.000000   2523758   2530540   2537137   2543613   2550027  
  7020.000000   2556425   2562856   2569354   2575959   2582671  
  7010.000000   2589474   2596292   2603037   2609598   2615906  
  7000.000000   2621918   2627655   2633159   2638491   2643686  
  6990.000000   2648770   2653743   2658618   2663408   2668160  
  6980.000000   2672905   2677677   2682458   2687218   2691888  
  6970.000000   2696428   2700798   2705013   2709089   2713059  
  6960.000000   2716925   2720683   2724301   2727775   2731104  
  6950.000000   2734333   2737496   2740638   2743754   2746824  
  6940.000000   2749794   2752634   2755324   2757898   2760396  
  6930.000000   2762871   2765332   2767764   2770108   2772318  
  6920.000000   2774355   2776239   2778016   2779765   2781551  
  6910.000000   2783421   2785373   2787386   2789411   2791402  
  6900.000000   2793313   2795113   2796778   2798302   2799696  
  6890.000000   2800993   2802239   2803492   2804793   2806163  
  6880.000000   2807589   2809044   2810490   2811911   2813306  
  6870.000000   2814694   2816089   2817490   2818866   2820177  
  6860.000000   2821384   2822485   2823509   2824518   2825569  
  6850.000000   2826691   2827863   2829031   2830123   2831100  
  6840.000000   2831963   2832767   2833574   2834432   2835328  
  6830.000000   2836200   2836956   2837517   2837859   2838024  
  6820.000000   2838106   2838217   2838436   2838798   2839283  
  6810.000000   2839859   2840494   2841196   2841985   2842889  
  6800.000000   2843893   2844944   2845933   2846747   2847292  
  6790.000000   2847534   2847500   2847271   2846940   2846587  
  6780.000000   2846259   2845969   2845703   2845448   2845188  
  6770.000000   2844922   2844646   2844364   2844078   2843801  
  6760.000000   2843553   2843364   2843258   2843245   2843306  
  6750.000000   2843400   2843473   2843479   2843399   2843237  
  6740.000000   2843019   2842772   2842508   2842223   2841903  
  6730.000000   2841546   2841164   2840799   2840493   2840282  
  6720.000000   2840160   2840093   2840017   2839876   2839632  
  6710.000000   2839286   2838854   2838366   2837829   2837237  
  6700.000000   2836570   2835823   2835014   2834195   2833422  
  6690.000000   2832746   2832164   2831639   2831092   2830452  
  6680.000000   2829672   2828762   2827766   2826752   2825764  
  6670.000000   2824818   2823886   2822933   2821920   2820849  
  6660.000000   2819736   2818618   2817508   2816401   2815253  
  6650.000000   2814019   2812662   2811186   2809622   2808023  
  6640.000000   2806432   2804870   2803326   2801780   2800210  
  6630.000000   2798624   2797046   2795517   2794062   2792681  
  6620.000000   2791341   2789993   2788590   2787111   2785565  
  6610.000000   2783984   2782403   2780845   2779306   2777769  
  6600.000000   2776207   2774609   2772977   2771332   2769691  
  6590.000000   2768062   2766436   2764788   2763089   2761317  
  6580.000000   2759466   2757542   2755565   2753560   2751558  
  6570.000000   2749594   2747706   2745932   2744296   2742802  
  6560.000000   2741420   2740097   2738767   2737375   2735896  
  6550.000000   2734344   2732768   2731224   2729758   2728379  
  6540.000000   2727066   2725770   2724444   2723057   2721608  
  6530.000000   2720119   2718627   2717168   2715767   2714437  
  6520.000000   2713185   2712019   2710946   2709972   2709091  
  6510.000000   2708283   2707510   2706727   2705892   2704977  
  6500.000000   2703977   2702902   2701776   2700620   2699457  
  6490.000000   2698297   2697150   2696022   2694915   2693828  
  6480.000000   2692756   2691688   2690612   2689522   2688416  
  6470.000000   2687308   2686212   2685148   2684128   2683152  
  6460.000000   2682215   2681300   2680392   2679471   2678519  
  6450.000000   2677518   2676456   2675329   2674151   2672950  
  6440.000000   2671772   2670663   2669660   2668772   2667983  
  6430.000000   2667253   2666537   2665799   2665025   2664223  
  6420.000000   2663418   2662631   2661878   2661157   2660468  
  6410.000000   2659805   2659183   2658617   2658130   2657729  
  6400.000000   2657405   2657128   2656865   2656587   2656287  
  6390.000000   2655975   2655676   2655412   2655195   2655019  
  6380.000000   2654869   2654726   2654583   2654438   2654292  
  6370.000000   2654143   2653976   2653771   2653507   2653185  
  6360.000000   2652825   2652469   2652156   2651911   2651723  
  6350.000000   2651552   2651340   2651031   2650595   2650035  
  6340.000000   2649377   2648662   2647919   2647167   2646404  
  6330.000000   2645631   2644853   2644090   2643363   2642696  
  6320.000000   2642082   2641503   2640912   2640268   2639539  
  6310.000000   2638720   2637821   2636869   2635877   2634852  
  6300.000000   2633782   2632657   2631469   2630230   2628957  
  6290.000000   2627676   2626395   2625118   2623823   2622496  
  6280.000000   2621114   2619677   2618178   2616625   2615012  
  6270.000000   2613334   2611580   2609756   2607874   2605970  
  6260.000000   2604073   2602211   2600381   2598565   2596720  
  6250.000000   2594817   2592835   2590791   2588715   2586652  
  6240.000000   2584632   2582668   2580750   2578858   2576971  
  6230.000000   2575081   2573191   2571312   2569448   2567597  
  6220.000000   2565744   2563872   2561969   2560033   2558075  
  6210.000000   2556110   2554156   2552219   2550300   2548394  
  6200.000000   2546498   2544614   2542748   2540909   2539104  
  6190.000000   2537341   2535625   2533961   2532355   2530810  
  6180.000000   2529320   2527863   2526409   2524922   2523378  
  6170.000000   2521767   2520109   2518436   2516785   2515176  
  6160.000000   2513609   2512063   2510507   2508919   2507300  
  6150.000000   2505672   2504069   2502522   2501040   2499613  
  6140.000000   2498212   2496807   2495383   2493942   2492502  
  6130.000000   2491080   2489684   2488300   2486909   2485487  
  6120.000000   2484030   2482554   2481099   2479705   2478405  
  6110.000000   2477206   2476098   2475051   2474041   2473050  
  6100.000000   2472085   2471159   2470296   2469505   2468796  
  6090.000000   2468161   2467598   2467096   2466657   2466272  
  6080.000000   2465939   2465637   2465352   2465060   2464756  
  6070.000000   2464434   2464117   2463818   2463567   2463374  
  6060.000000   2463257   2463212   2463249   2463363   2463565  
  6050.000000   2463850   2464230   2464698   2465267   2465936  
  6040.000000   2466724   2467640   2468701   2469907   2471261  
  6030.000000   2472744   2474349   2476053   2477850   2479716  
  6020.000000   2481638   2483575   2485498   2487358   2489137  
  6010.000000   2490825   2492454   2494065   2495722   2497470  
  6000.000000   2499342   2501336   2503442   2505630   2507887  
  5990.000000   2510194   2512558   2514969   2517431   2519924  
  5980.000000   2522452   2525010   2527631   2530350   2533228  
  5970.000000   2536297   2539583   2543063   2546702   2550436  
  5960.000000   2554222   2558018   2561818   2565620   2569440  
  5950.000000   2573278   2577141   2581019   2584918   2588845  
  5940.000000   2592823   2596874   2601014   2605248   2609561  
  5930.000000   2613928   2618310   2622676   2626991   2631229  
  5920.000000   2635359   2639352   2643176   2646809   2650242  
  5910.000000   2653484   2656557   2659495   2662330   2665095  
  5900.000000   2667813   2670517   2673230   2675997   2678851  
  5890.000000   2681830   2684942   2688184   2691519   2694900  
  5880.000000   2698268   2701569   2704758   2707802   2710684  
  5870.000000   2713398   2715964   2718410   2720790   2723158  
  5860.000000   2725573   2728071   2730662   2733336   2736066  
  5850.000000   2738832   2741626   2744464   2747375   2750389  
  5840.000000   2753518   2756747   2760035   2763328   2766577  
  5830.000000   2769747   2772825   2775814   2778725   2781566  
  5820.000000   2784336   2787038   2789668   2792242   2794769  
  5810.000000   2797273   2799753   2802215   2804625   2806971  
  5800.000000   2809216   2811363   2813394   2815326   2817134  
  5790.000000   2818814   2820310   2821590   2822590   2823285  
  5780.000000   2823630   2823621   2823234   2822478   2821350  
  5770.000000   2819893   2818151   2816217   2814177   2812136  
  5760.000000   2810160   2808307   2806590   2805023   2803598  
  5750.000000   2802327   2801215   2800270   2799488   2798837  
  5740.000000   2798276   2797745   2797198   2796599   2795945  
  5730.000000   2795241   2794522   2793811   2793142   2792535  
  5720.000000   2792014   2791593   2791283   2791081   2790976  
  5710.000000   2790939   2790944   2790961   2790978   2790989  
  5700.000000   2790999   2791014   2791027   2791028   2790999  
  5690.000000   2790934   2790836   2790728   2790630   2790566  
  5680.000000   2790525   2790481   2790379   2790172   2789808  
  5670.000000   2789273   2788560   2787683   2786650   2785469  
  5660.000000   2784136   2782658   2781047   2779345   2777598  
  5650.000000   2775865   2774183   2772579   2771048   2769579  
  5640.000000   2768152   2766760   2765401   2764080   2762798  
  5630.000000   2761548   2760321   2759103   2757899   2756716  
  5620.000000   2755580   2754508   2753513   2752587   2751714  
  5610.000000   2750870   2750042   2749227   2748439   2747691  
  5600.000000   2746992   2746335   2745702   2745069   2744414  
  5590.000000   2743731   2743020   2742290   2741542   2740772  
  5580.000000   2739967   2739117   2738219   2737282   2736323  
  5570.000000   2735358   2734387   2733399   2732367   2731269  
  5560.000000   2730091   2728844   2727549   2726242   2724944  
  5550.000000   2723668   2722409   2721157   2719906   2718662  
  5540.000000   2717441   2716264   2715139   2714059   2713005  
  5530.000000   2711952   2710882   2709795   2708705   2707635  
  5520.000000   2706599   2705601   2704626   2703650   2702647  
  5510.000000   2701603   2700509   2699370   2698187   2696961  
  5500.000000   2695689   2694373   2693017   2691642   2690264  
  5490.000000   2688899   2687540   2686167   2684745   2683243  
  5480.000000   2681641   2679950   2678193   2676409   2674623  
  5470.000000   2672852   2671086   2669313   2667512   2665680  
  5460.000000   2663815   2661929   2660022   2658094   2656136  
  5450.000000   2654143   2652117   2650073   2648032   2646016  
  5440.000000   2644036   2642092   2640181   2638298   2636456  
  5430.000000   2634670   2632965   2631342   2629794   2628282  
  5420.000000   2626783   2625273   2623779   2622344   2621047  
  5410.000000   2619939   2619055   2618368   2617840   2617406  
  5400.000000   2617044   2616738   2616531   2616452   2616547  
  5390.000000   2616814   2617254   2617825   2618525   2619340  
  5380.000000   2620308   2621440   2622773   2624284   2625968  
  5370.000000   2627768   2629685   2631691   2633837   2636135  
  5360.000000   2638665   2641433   2644504   2647863   2651573  
  5350.000000   2655623   2660086   2664950   2670276   2676017  
  5340.000000   2682213   2688802   2695844   2703300   2711256  
  5330.000000   2719677   2728633   2738055   2747991   2758370  
  5320.000000   2769284   2780716   2792821   2805613   2819247  
  5310.000000   2833690   2849033   2865179   2882179   2899939  
  5300.000000   2918540   2937933   2958241   2979442   3001655  
  5290.000000   3024821   3048985   3074006   3099835   3126286  
  5280.000000   3153314   3180817   3208871   3237514   3266900  
  5270.000000   3297071   3328050   3359690   3391778   3424036  
  5260.000000   3456223   3488203   3519941   3551513   3582975  
  5250.000000   3614373   3645592   3676493   3706792   3736332  
  5240.000000   3764916   3792587   3819341   3845372   3870715  
  5230.000000   3895515   3919683   3943223   3965931   3987772  
  5220.000000   4008578   4028422   4047267   4065302   4082553  
  5210.000000   4099204   4115200   4130598   4145215   4159027  
  5200.000000   4171854   4183755   4194675   4204784   4214092  
  5190.000000   4222757   4230725   4238066   4244670   4250583  
  5180.000000   4255723   4260182   4263918   4267030   4269457  
  5170.000000   4271267   4272398   4272940   4272889   4272389  
  5160.000000   4271466   4270235   4268662   4266774   4264474  
  5150.000000   4261766   4258585   4254991   4250987   4246664  
  5140.000000   4242030   4237151   4232009   4226646   4221049  
  5130.000000   4215267   4209301   4203194   4196936   4190548  
  5120.000000   4184012   4177351   4170572   4163721   4156819  
  5110.000000   4149902   4142970   4136026   4129053   4122058  
  5100.000000   4115052   4108076   4101168   4094374   4087708  
  5090.000000   4081173   4074743   4068392   4062087   4055812  
  5080.000000   4049550   4043297   4037041   4030772   4024471  
  5070.000000   4018132   4011745   4005320   3998856   3992366  
  5060.000000   3985841   3979276   3972645   3965935   3959120  
  5050.000000   3952198   3945157   3938007   3930745   3923386  
  5040.000000   3915935   3908415   3900840   3893236   3885615  
  5030.000000   3877991   3870361   3862724   3855076   3847423  
  5020.000000   3839783   3832183   3824657   3817230   3809922  
  5010.000000   3802729   3795655   3788677   3781805   3775032  
  5000.000000   3768393   3761900   3755599   3749497   3743627  
  4990.000000   3737977   3732566   3727370   3722413   3717670  
  4980.000000   3713175   3708911   3704921   3701195   3697791  
  4970.000000   3694703   3691987   3689626   3687653   3686020  
  4960.000000   3684738   3683745   3683062   3682655   3682586  
  4950.000000   3682855   3683545   3684649   3686221   3688209  
  4940.000000   3690624   3693387   3696509   3699931   3703698  
  4930.000000   3707786   3712262   3717108   3722374   3728017  
  4920.000000   3734057   3740432   3747148   3754152   3761464  
  4910.000000   3769053   3776952   3785143   3793647   3802430  
  4900.000000   3811487   3820765   3830239   3839857   3849595  
  4890.000000   3859417   3869296   3879200   3889084   3898904  
  4880.000000   3908600   3918132   3927445   3936521   3945312  
  4870.000000   3953812   3961967   3969766   3977149   3984115  
  4860.000000   3990625   3996711   4002370   4007662   4012600  
  4850.000000   4017248   4021612   4025748   4029655   4033382  
  4840.000000   4036928   4040335   4043596   4046742   4049765  
  4830.000000   4052695   4055530   4058301   4061009   4063670  
  4820.000000   4066270   4068804   4071244   4073586   4075819  
  4810.000000   4077965   4080045   4082099   4084154   4086242  
  4800.000000   4088367   4090536   4092735   4094955   4097179  
  4790.000000   4099400   4101600   4103774   4105908   4107998  
  4780.000000   4110037   4112031   4113980   4115894   4117773  
  4770.000000   4119623   4121436   4123216   4124950   4126643  
  4760.000000   4128280   4129866   4131381   4132824   4134170  
  4750.000000   4135415   4136534   4137526   4138373   4139079  
  4740.000000   4139629   4140034   4140286   4140403   4140385  
  4730.000000   4140256   4140014   4139674   4139227   4138677  
  4720.000000   4138013   4137242   4136367   4135405   4134372  
  4710.000000   4133286   4132164   4131023   4129882   4128764  
  4700.000000   4127703   4126733   4125892   4125207   4124698  
  4690.000000   4124364   4124200   4124186   4124313   4124560  
  4680.000000   4124920   4125371   4125895   4126450   4127002  
  4670.000000   4127498   4127918   4128235   4128471   4128645  
  4660.000000   4128813   4129018   4129319   4129749   4130345  
  4650.000000   4131116   4132073   4133206   4134506   4135954  
  4640.000000   4137536   4139237   4141051   4142973   4145001  
  4630.000000   4147124   4149324   4151564   4153798   4155968  
  4620.000000   4158020   4159904   4161586   4163051   4164294  
  4610.000000   4165329   4166172   4166857   4167412   4167884  
  4600.000000   4168301   4168708   4169115   4169543   4169975  
  4590.000000   4170405   4170801   4171151   4171430   4171634  
  4580.000000   4171748   4171773   4171694   4171510   4171210  
  4570.000000   4170802   4170289   4169690   4169015   4168278  
  4560.000000   4167477   4166609   4165657   4164618   4163489  
  4550.000000   4162287   4161039   4159779   4158543   4157356  
  4540.000000   4156238   4155189   4154209   4153286   4152417  
  4530.000000   4151585   4150798   4150043   4149340   4148683  
  4520.000000   4148112   4147631   4147296   4147114   4147148  
  4510.000000   4147395   4147917   4148704   4149829   4151291  
  4500.000000   4153182   4155511   4158380   4161791   4165837  
  4490.000000   4170498   4175849   4181852   4188571   4195964  
  4480.000000   4204086   4212895   4222436   4232654   4243573  
  4470.000000   4255114   4267261   4279906   4292998   4306413  
  4460.000000   4320086   4333898   4347794   4361675   4375495  
  4450.000000   4389177   4402686   4415979   4429044   4441887  
  4440.000000   4454532   4467026   4479404   4491725   4504000  
  4430.000000   4516273   4528519   4540757   4552926   4565023  
  4420.000000   4576956   4588702   4600147   4611258   4621924  
  4410.000000   4632116   4641740   4650780   4659159   4666876  
  4400.000000   4673877   4680191   4685807   4690802   4695220  
  4390.000000   4699183   4702772   4706121   4709305   4712431  
  4380.000000   4715546   4718718   4721969   4725344   4728866  
  4370.000000   4732582   4736520   4740723   4745210   4749993  
  4360.000000   4755057   4760378   4765903   4771591   4777373  
  4350.000000   4783216   4789052   4794861   4800579   4806197  
  4340.000000   4811645   4816896   4821845   4826397   4830366  
  4330.000000   4833569   4835767   4836785   4836489   4834906  
  4320.000000   4832176   4828614   4824591   4820541   4816804  
  4310.000000   4813654   4811190   4809423   4808239   4807516  
  4300.000000   4807106   4806911   4806859   4806908   4807042  
  4290.000000   4807242   4807511   4807846   4808275   4808822  
  4280.000000   4809525   4810415   4811493   4812754   4814144  
  4270.000000   4815612   4817062   4818404   4819499   4820210  
  4260.000000   4820362   4819804   4818400   4816099   4812922  
  4250.000000   4809006   4804546   4799813   4795043   4790470  
  4240.000000   4786218   4782366   4778881   4775710   4772739  
  4230.000000   4769877   4767024   4764112   4761089   4757923  
  4220.000000   4754614   4751162   4747612   4743999   4740400  
  4210.000000   4736869   4733491   4730308   4727382   4724728  
  4200.000000   4722380   4720324   4718576   4717108   4715931  
  4190.000000   4715005   4714341   4713891   4713669   4713624  
  4180.000000   4713782   4714104   4714639   4715375   4716392  
  4170.000000   4717707   4719421   4721556   4724203   4727358  
  4160.000000   4731075   4735305   4740067   4745286   4750973  
  4150.000000   4757052   4763548   4770396   4777643   4785245  
  4140.000000   4793272   4801700   4810618   4820010   4829954  
  4130.000000   4840417   4851445   4862980   4875051   4887602  
  4120.000000   4900670   4914216   4928284   4942840   4957909  
  4110.000000   4973441   4989436   5005829   5022604   5039689  
  4100.000000   5057059   5074643   5092410   5110307   5128320  
  4090.000000   5146429   5164640   5182960   5201386   5219924  
  4080.000000   5238543   5257233   5275939   5294639   5313256  
  4070.000000   5331761   5350053   5368099   5385799   5403146  
  4060.000000   5420065   5436587   5452646   5468281   5483410  
  4050.000000   5498066   5512159   5525738   5538725   5551182  
  4040.000000   5563013   5574257   5584781   5594613   5603630  
  4030.000000   5611901   5619348   5626064   5631982   5637155  
  4020.000000   5641456   5644923   5647503   5649266   5650145  
  4010.000000   5650290   5649787   5648655   5646643   5643831  
  4000.000000   5640619  
##END= 
